title:Alex-c93UH4QoluO_RAJ7AlB4Bg, start timestamp:1644854345.184379, stop timestamp:1644854371.420543, headset type:EPOCPLUS, headset serial:3B9AEBFF, headset firmware:626, channels:55, sampling rate:eeg_256, samples:6660      , version:2.1, 
Timestamp,EEG.Counter,EEG.Interpolated,EEG.AF3,EEG.F7,EEG.F3,EEG.FC5,EEG.T7,EEG.P7,EEG.O1,EEG.O2,EEG.P8,EEG.T8,EEG.FC6,EEG.F4,EEG.F8,EEG.AF4,EEG.RawCq,EEG.Battery,EEG.BatteryPercent,MarkerIndex,MarkerType,MarkerValueInt,EEG.MarkerHardware,CQ.AF3,CQ.F7,CQ.F3,CQ.FC5,CQ.T7,CQ.P7,CQ.O1,CQ.O2,CQ.P8,CQ.T8,CQ.FC6,CQ.F4,CQ.F8,CQ.AF4,CQ.Overall,EQ.SampleRateQuality,EQ.OVERALL,EQ.AF3,EQ.F7,EQ.F3,EQ.FC5,EQ.T7,EQ.P7,EQ.O1,EQ.O2,EQ.P8,EQ.T8,EQ.FC6,EQ.F4,EQ.F8,EQ.AF4
1644854345.184379,118.000000,0.000000,4175.128418,4148.077148,4150.128418,4152.563965,4018.846191,4172.436035,4181.922852,4178.974121,4179.871582,4186.794922,3783.846191,4156.410156,3938.846191,4100.769043,0.000000,4.000000,86.000000,,,,0.000000,4.000000,4.000000,4.000000,4.000000,4.000000,4.000000,4.000000,4.000000,4.000000,4.000000,4.000000,4.000000,4.000000,4.000000,100.000000,,,,,,,,,,,,,,,,
1644854345.188220,119.000000,0.000000,4173.461426,4156.666504,4153.077148,4150.384766,4022.948730,4170.512695,4183.205078,4178.077148,4180.384766,4194.487305,3793.718018,4154.615234,3956.281982,4115.512695,0.000000,4.000000,86.000000,,,,0.000000,4.000000,4.000000,4.000000,4.000000,4.000000,4.000000,4.000000,4.000000,4.000000,4.000000,4.000000,4.000000,4.000000,4.000000,100.000000,,,,,,,,,,,,,,,,
1644854345.192160,120.000000,0.000000,4170.000000,4163.717773,4156.538574,4147.179688,4026.410156,4168.589844,4182.436035,4178.333496,4182.692383,4199.871582,3804.102539,4151.666504,3966.281982,4135.897461,0.000000,4.000000,86.000000,,,,0.000000,4.000000,4.000000,4.000000,4.000000,4.000000,4.000000,4.000000,4.000000,4.000000,4.000000,4.000000,4.000000,4.000000,4.000000,100.000000,,,,,,,,,,,,,,,,
1644854345.196100,121.000000,0.000000,4167.051270,4167.692383,4159.230957,4146.282227,4031.153809,4169.615234,4180.641113,4180.000000,4185.512695,4201.538574,3806.666748,4151.025879,3962.564209,4149.358887,0.000000,4.000000,86.000000,,,,0.000000,4.000000,4.000000,4.000000,4.000000,4.000000,4.000000,4.000000,4.000000,4.000000,4.000000,4.000000,4.000000,4.000000,4.000000,100.000000,,,,,,,,,,,,,,,,
1644854345.200040,122.000000,0.000000,4170.000000,4170.512695,4160.769043,4148.589844,4036.794922,4174.615234,4180.769043,4182.948730,4187.436035,4200.256348,3801.153809,4155.256348,3948.076904,4149.871582,0.000000,4.000000,86.000000,,,,0.000000,4.000000,4.000000,4.000000,4.000000,4.000000,4.000000,4.000000,4.000000,4.000000,4.000000,4.000000,4.000000,4.000000,4.000000,100.000000,,,,,,,,,,,,,,,,
1644854345.203980,123.000000,0.000000,4181.410156,4174.102539,4161.025879,4152.692383,4040.128174,4181.538574,4183.717773,4186.410156,4187.563965,4197.948730,3793.974365,4162.436035,3933.076904,4141.282227,0.000000,4.000000,86.000000,,,,0.000000,4.000000,4.000000,4.000000,4.000000,4.000000,4.000000,4.000000,4.000000,4.000000,4.000000,4.000000,4.000000,4.000000,4.000000,100.000000,,,,,,,,,,,,,,,,
1644854345.207920,124.000000,0.000000,4197.307617,4176.794922,4159.487305,4156.410156,4038.718018,4185.897461,4186.538574,4188.077148,4185.512695,4194.871582,3792.948730,4167.820313,3927.179443,4130.641113,0.000000,4.000000,86.000000,,,,0.000000,4.000000,4.000000,4.000000,4.000000,4.000000,4.000000,4.000000,4.000000,4.000000,4.000000,4.000000,4.000000,4.000000,4.000000,100.000000,,,,,,,,,,,,,,,,
1644854345.211860,125.000000,0.000000,4209.615234,4174.615234,4156.025879,4157.948730,4032.948730,4184.871582,4185.512695,4186.666504,4181.794922,4190.000000,3800.256348,4167.563965,3932.307617,4124.230957,0.000000,4.000000,86.000000,,,,0.000000,4.000000,4.000000,4.000000,4.000000,4.000000,4.000000,4.000000,4.000000,4.000000,4.000000,4.000000,4.000000,4.000000,4.000000,100.000000,,,,,,,,,,,,,,,,
1644854345.215800,126.000000,0.000000,4213.589844,4166.666504,4151.922852,4156.282227,4027.179443,4178.846191,4180.512695,4182.948730,4178.205078,4182.948730,3811.153809,4161.922852,3942.692383,4123.974121,0.000000,4.000000,86.000000,,,,0.000000,4.000000,4.000000,4.000000,4.000000,4.000000,4.000000,4.000000,4.000000,4.000000,4.000000,4.000000,4.000000,4.000000,4.000000,100.000000,,,,,,,,,,,,,,,,
1644854345.219740,127.000000,0.000000,4210.000000,4157.179688,4149.871582,4151.538574,4025.512939,4171.410156,4175.769043,4180.000000,4177.307617,4176.282227,3819.615479,4156.025879,3949.615479,4128.077148,0.000000,4.000000,86.000000,,,,0.000000,4.000000,4.000000,4.000000,4.000000,4.000000,4.000000,4.000000,4.000000,4.000000,4.000000,4.000000,4.000000,4.000000,4.000000,100.000000,,,,,,,,,,,,,,,,
1644854345.223681,128.000000,0.000000,4202.436035,4152.820313,4151.282227,4145.256348,4029.230713,4166.666504,4175.769043,4180.641113,4181.025879,4174.230957,3823.205078,4156.538574,3948.461426,4132.436035,3433.000000,4.000000,86.000000,,,,0.000000,4.000000,4.000000,4.000000,4.000000,4.000000,4.000000,4.000000,4.000000,4.000000,4.000000,4.000000,4.000000,4.000000,4.000000,100.000000,,,,,,,,,,,,,,,,
1644854345.227621,129.000000,0.000000,4193.974121,4156.025879,4155.384766,4139.871582,4035.641113,4166.922852,4180.128418,4185.000000,4188.461426,4179.230957,3823.205078,4166.025879,3941.153809,4133.077148,3126.000000,4.000000,86.000000,,,,0.000000,4.000000,4.000000,4.000000,4.000000,4.000000,4.000000,4.000000,4.000000,4.000000,4.000000,4.000000,4.000000,4.000000,4.000000,100.000000,,,,,,,,,,,,,,,,
1644854345.231561,130.000000,0.000000,4186.538574,4163.333496,4159.487305,4137.948730,4041.025635,4171.666504,4185.256348,4190.128418,4196.922852,4189.487305,3821.794922,4180.384766,3934.358887,4129.615234,3577.000000,4.000000,86.000000,,,,0.000000,4.000000,4.000000,4.000000,4.000000,4.000000,4.000000,4.000000,4.000000,4.000000,4.000000,4.000000,4.000000,4.000000,4.000000,100.000000,,,,,,,,,,,,,,,,
1644854345.235501,131.000000,0.000000,4181.794922,4167.948730,4161.282227,4140.512695,4043.205078,4178.205078,4187.820313,4193.205078,4202.820313,4199.871582,3820.512939,4191.538574,3934.743652,4126.410156,3555.000000,4.000000,86.000000,,,,0.000000,4.000000,4.000000,4.000000,4.000000,4.000000,4.000000,4.000000,4.000000,4.000000,4.000000,4.000000,4.000000,4.000000,4.000000,100.000000,,,,,,,,,,,,,,,,
1644854345.239441,132.000000,0.000000,4181.922852,4166.282227,4161.410156,4146.153809,4043.846191,4183.717773,4188.333496,4193.974121,4204.358887,4206.282227,3821.281982,4193.461426,3943.333252,4128.974121,3590.000000,4.000000,86.000000,,,,0.000000,4.000000,4.000000,4.000000,4.000000,4.000000,4.000000,4.000000,4.000000,4.000000,4.000000,4.000000,4.000000,4.000000,4.000000,100.000000,,,,,,,,,,,,,,,,
1644854345.243381,133.000000,0.000000,4187.948730,4161.666504,4162.051270,4152.563965,4046.538574,4186.153809,4188.333496,4194.358887,4202.051270,4208.974121,3826.923096,4186.410156,3956.794922,4139.230957,3395.000000,4.000000,86.000000,,,,0.000000,4.000000,4.000000,4.000000,4.000000,4.000000,4.000000,4.000000,4.000000,4.000000,4.000000,4.000000,4.000000,4.000000,4.000000,100.000000,,,,,,,,,,,,,,,,
1644854345.247321,134.000000,0.000000,4198.974121,4160.897461,4164.743652,4157.051270,4052.179443,4185.128418,4188.589844,4195.256348,4198.589844,4211.794922,3838.718018,4176.282227,3969.615479,4153.974121,2630.000000,4.000000,86.000000,,,,0.000000,4.000000,4.000000,4.000000,4.000000,4.000000,4.000000,4.000000,4.000000,4.000000,4.000000,4.000000,4.000000,4.000000,4.000000,100.000000,,,,,,,,,,,,,,,,
1644854345.251261,135.000000,0.000000,4210.769043,4167.179688,4168.589844,4157.436035,4056.923096,4182.051270,4188.205078,4196.282227,4196.666504,4216.410156,3851.410156,4169.102539,3977.948730,4167.051270,2897.000000,4.000000,86.000000,,,,0.000000,4.000000,4.000000,4.000000,4.000000,4.000000,4.000000,4.000000,4.000000,4.000000,4.000000,4.000000,4.000000,4.000000,4.000000,100.000000,,,,,,,,,,,,,,,,
1644854345.255201,136.000000,0.000000,4217.563965,4176.282227,4170.256348,4152.692383,4055.000000,4178.717773,4186.922852,4196.025879,4196.794922,4219.230957,3855.769287,4167.307617,3978.974365,4173.205078,3156.000000,4.000000,86.000000,,,,0.000000,4.000000,4.000000,4.000000,4.000000,4.000000,4.000000,4.000000,4.000000,4.000000,4.000000,4.000000,4.000000,4.000000,4.000000,100.000000,,,,,,,,,,,,,,,,
1644854345.259141,137.000000,0.000000,4214.230957,4179.230957,4167.948730,4143.846191,4044.743652,4175.897461,4186.282227,4194.230957,4196.794922,4215.128418,3846.794922,4168.974121,3971.410156,4170.512695,3552.000000,4.000000,86.000000,,,,0.000000,4.000000,4.000000,4.000000,4.000000,4.000000,4.000000,4.000000,4.000000,4.000000,4.000000,4.000000,4.000000,4.000000,4.000000,100.000000,,,,,,,,,,,,,,,,
1644854345.262982,138.000000,0.000000,4201.153809,4171.410156,4163.077148,4135.128418,4032.179443,4173.461426,4187.436035,4192.307617,4195.000000,4203.717773,3830.128174,4171.282227,3957.051270,4160.384766,3567.000000,4.000000,86.000000,,,,0.000000,4.000000,4.000000,4.000000,4.000000,4.000000,4.000000,4.000000,4.000000,4.000000,4.000000,4.000000,4.000000,4.000000,4.000000,100.000000,,,,,,,,,,,,,,,,
1644854345.266922,139.000000,0.000000,4185.897461,4157.307617,4159.743652,4132.307617,4026.538574,4171.666504,4189.487305,4192.307617,4192.179688,4192.179688,3817.820557,4174.615234,3942.564209,4147.179688,2444.000000,4.000000,86.000000,,,,0.000000,4.000000,4.000000,4.000000,4.000000,4.000000,4.000000,4.000000,4.000000,4.000000,4.000000,4.000000,4.000000,4.000000,4.000000,100.000000,,,,,,,,,,,,,,,,
1644854345.270862,140.000000,0.000000,4179.871582,4147.051270,4160.897461,4137.436035,4033.076904,4171.153809,4189.743652,4194.871582,4191.282227,4189.615234,3818.205078,4180.000000,3936.281982,4137.436035,3357.000000,4.000000,86.000000,,,,0.000000,4.000000,4.000000,4.000000,4.000000,4.000000,4.000000,4.000000,4.000000,4.000000,4.000000,4.000000,4.000000,4.000000,4.000000,100.000000,,,,,,,,,,,,,,,,
1644854345.274802,141.000000,0.000000,4188.205078,4147.436035,4165.897461,4147.436035,4047.564209,4172.307617,4187.563965,4197.948730,4194.230957,4198.717773,3829.487061,4186.153809,3942.307617,4136.025879,3533.000000,4.000000,86.000000,,,,0.000000,4.000000,4.000000,4.000000,4.000000,4.000000,4.000000,4.000000,4.000000,4.000000,4.000000,4.000000,4.000000,4.000000,4.000000,100.000000,,,,,,,,,,,,,,,,
1644854345.278742,142.000000,0.000000,4204.358887,4155.641113,4170.512695,4154.743652,4061.025635,4174.358887,4185.000000,4198.974121,4198.846191,4212.563965,3842.564209,4188.077148,3955.897461,4143.077148,3567.000000,4.000000,86.000000,,,,0.000000,4.000000,4.000000,4.000000,4.000000,4.000000,4.000000,4.000000,4.000000,4.000000,4.000000,4.000000,4.000000,4.000000,4.000000,100.000000,,,,,,,,,,,,,,,,
1644854345.282682,143.000000,0.000000,4214.487305,4162.948730,4171.282227,4153.333496,4066.025635,4176.153809,4184.230957,4196.666504,4201.410156,4220.384766,3848.846191,4182.692383,3966.025635,4151.922852,2444.000000,4.000000,86.000000,,,,0.000000,4.000000,4.000000,4.000000,4.000000,4.000000,4.000000,4.000000,4.000000,4.000000,4.000000,4.000000,4.000000,4.000000,4.000000,100.000000,,,,,,,,,,,,,,,,
1644854345.286622,144.000000,0.000000,4208.333496,4162.436035,4168.333496,4142.820313,4062.179443,4177.307617,4185.512695,4192.692383,4199.487305,4217.179688,3846.153809,4172.563965,3963.461426,4154.871582,3357.000000,4.000000,86.000000,,,,0.000000,4.000000,4.000000,4.000000,4.000000,4.000000,4.000000,4.000000,4.000000,4.000000,4.000000,4.000000,4.000000,4.000000,4.000000,100.000000,1.000000,8.333333,1.000000,1.000000,3.000000,0.000000,1.000000,4.000000,4.000000,4.000000,4.000000,3.000000,0.000000,3.000000,1.000000,3.000000
1644854345.290562,145.000000,0.000000,4188.846191,4154.615234,4164.871582,4128.717773,4055.256348,4178.846191,4186.410156,4189.615234,4194.871582,4206.282227,3838.589844,4164.743652,3949.871826,4148.461426,3533.000000,4.000000,86.000000,,,,0.000000,4.000000,4.000000,4.000000,4.000000,4.000000,4.000000,4.000000,4.000000,4.000000,4.000000,4.000000,4.000000,4.000000,4.000000,100.000000,,,,,,,,,,,,,,,,
1644854345.294503,146.000000,0.000000,4169.743652,4146.153809,4163.974121,4119.615234,4052.179443,4181.282227,4186.153809,4189.358887,4191.538574,4197.051270,3833.461426,4165.128418,3935.769287,4137.179688,3567.000000,4.000000,86.000000,,,,0.000000,4.000000,4.000000,4.000000,4.000000,4.000000,4.000000,4.000000,4.000000,4.000000,4.000000,4.000000,4.000000,4.000000,4.000000,100.000000,,,,,,,,,,,,,,,,
1644854345.298443,147.000000,0.000000,4164.487305,4143.717773,4165.897461,4121.282227,4056.666748,4183.717773,4186.025879,4192.051270,4192.051270,4196.666504,3836.410156,4173.461426,3931.923096,4129.230957,2444.000000,4.000000,86.000000,,,,0.000000,4.000000,4.000000,4.000000,4.000000,4.000000,4.000000,4.000000,4.000000,4.000000,4.000000,4.000000,4.000000,4.000000,4.000000,100.000000,,,,,,,,,,,,,,,,
1644854345.302383,148.000000,0.000000,4176.153809,4148.333496,4168.205078,4132.820313,4066.410156,4184.615234,4187.436035,4196.410156,4195.641113,4205.641113,3846.794922,4183.333496,3940.769287,4129.871582,3357.000000,4.000000,86.000000,,,,0.000000,4.000000,4.000000,4.000000,4.000000,4.000000,4.000000,4.000000,4.000000,4.000000,4.000000,4.000000,4.000000,4.000000,4.000000,100.000000,,,,,,,,,,,,,,,,
1644854345.306323,149.000000,0.000000,4196.410156,4156.410156,4168.589844,4147.307617,4075.000000,4183.077148,4189.615234,4199.871582,4199.358887,4217.948730,3857.435791,4187.820313,3954.743652,4138.717773,3533.000000,4.000000,86.000000,,,,0.000000,4.000000,4.000000,4.000000,4.000000,4.000000,4.000000,4.000000,4.000000,4.000000,4.000000,4.000000,4.000000,4.000000,4.000000,100.000000,,,,,,,,,,,,,,,,
1644854345.310263,150.000000,0.000000,4211.538574,4162.179688,4166.666504,4156.282227,4076.410156,4179.871582,4190.512695,4199.871582,4200.384766,4224.743652,3859.615479,4183.846191,3963.718018,4150.641113,3567.000000,4.000000,86.000000,,,,0.000000,4.000000,4.000000,4.000000,4.000000,4.000000,4.000000,4.000000,4.000000,4.000000,4.000000,4.000000,4.000000,4.000000,4.000000,100.000000,,,,,,,,,,,,,,,,
1644854345.314203,151.000000,0.000000,4213.205078,4162.820313,4164.230957,4156.922852,4069.871826,4177.307617,4189.358887,4196.666504,4198.333496,4221.025879,3851.281982,4174.358887,3962.948730,4160.128418,2444.000000,4.000000,86.000000,,,,0.000000,4.000000,4.000000,4.000000,4.000000,4.000000,4.000000,4.000000,4.000000,4.000000,4.000000,4.000000,4.000000,4.000000,4.000000,100.000000,,,,,,,,,,,,,,,,
1644854345.318143,152.000000,0.000000,4202.179688,4159.230957,4162.820313,4153.205078,4060.000000,4177.307617,4188.077148,4193.077148,4194.743652,4208.589844,3838.846191,4166.410156,3955.769287,4164.358887,3357.000000,4.000000,86.000000,,,,0.000000,4.000000,4.000000,4.000000,4.000000,4.000000,4.000000,4.000000,4.000000,4.000000,4.000000,4.000000,4.000000,4.000000,4.000000,100.000000,,,,,,,,,,,,,,,,
1644854345.322083,153.000000,0.000000,4187.307617,4154.230957,4162.948730,4151.666504,4052.564209,4179.358887,4188.461426,4191.410156,4192.436035,4195.384766,3832.179443,4164.487305,3949.487061,4162.307617,3533.000000,4.000000,86.000000,,,,0.000000,4.000000,4.000000,4.000000,4.000000,4.000000,4.000000,4.000000,4.000000,4.000000,4.000000,4.000000,4.000000,4.000000,4.000000,100.000000,,,,,,,,,,,,,,,,
1644854345.326023,154.000000,0.000000,4177.563965,4150.256348,4163.333496,4154.615234,4050.897461,4181.794922,4189.743652,4191.922852,4192.820313,4188.974121,3834.743652,4167.948730,3948.718018,4154.871582,3567.000000,4.000000,86.000000,,,,0.000000,4.000000,4.000000,4.000000,4.000000,4.000000,4.000000,4.000000,4.000000,4.000000,4.000000,4.000000,4.000000,4.000000,4.000000,100.000000,,,,,,,,,,,,,,,,
1644854345.329963,155.000000,0.000000,4175.641113,4147.563965,4161.794922,4157.563965,4054.358887,4182.307617,4189.230957,4192.692383,4194.615234,4191.410156,3842.051270,4172.307617,3951.666748,4144.102539,2444.000000,4.000000,86.000000,,,,0.000000,4.000000,4.000000,4.000000,4.000000,4.000000,4.000000,4.000000,4.000000,4.000000,4.000000,4.000000,4.000000,4.000000,4.000000,100.000000,,,,,,,,,,,,,,,,
1644854345.333904,156.000000,0.000000,4177.563965,4144.743652,4157.948730,4154.102539,4060.384521,4179.743652,4185.897461,4191.282227,4194.230957,4198.333496,3845.897461,4172.948730,3951.923096,4133.974121,3357.000000,4.000000,86.000000,,,,0.000000,4.000000,4.000000,4.000000,4.000000,4.000000,4.000000,4.000000,4.000000,4.000000,4.000000,4.000000,4.000000,4.000000,4.000000,100.000000,,,,,,,,,,,,,,,,
1644854345.337744,157.000000,0.000000,4178.333496,4140.256348,4153.717773,4142.179688,4066.538574,4175.000000,4181.922852,4187.692383,4190.000000,4203.077148,3842.692383,4169.487305,3945.000000,4128.974121,3533.000000,4.000000,86.000000,,,,0.000000,4.000000,4.000000,4.000000,4.000000,4.000000,4.000000,4.000000,4.000000,4.000000,4.000000,4.000000,4.000000,4.000000,4.000000,100.000000,,,,,,,,,,,,,,,,
1644854345.341684,158.000000,0.000000,4177.563965,4134.871582,4152.051270,4126.666504,4070.897461,4170.384766,4180.769043,4183.846191,4183.717773,4202.051270,3836.281982,4165.512695,3933.205078,4131.025879,3567.000000,4.000000,86.000000,,,,0.000000,4.000000,4.000000,4.000000,4.000000,4.000000,4.000000,4.000000,4.000000,4.000000,4.000000,4.000000,4.000000,4.000000,4.000000,100.000000,,,,,,,,,,,,,,,,
1644854345.345624,159.000000,0.000000,4177.948730,4131.153809,4154.871582,4116.153809,4072.435791,4168.205078,4183.205078,4182.307617,4179.615234,4196.666504,3834.358887,4164.871582,3923.974365,4137.948730,2444.000000,4.000000,86.000000,,,,0.000000,4.000000,4.000000,4.000000,4.000000,4.000000,4.000000,4.000000,4.000000,4.000000,4.000000,4.000000,4.000000,4.000000,4.000000,100.000000,,,,,,,,,,,,,,,,
1644854345.349564,160.000000,0.000000,4181.025879,4131.538574,4160.384766,4116.666504,4071.666748,4169.358887,4186.282227,4184.487305,4180.897461,4192.051270,3841.025635,4168.461426,3923.974365,4145.000000,3357.000000,4.000000,86.000000,,,,0.000000,4.000000,4.000000,4.000000,4.000000,4.000000,4.000000,4.000000,4.000000,4.000000,4.000000,4.000000,4.000000,4.000000,4.000000,100.000000,,,,,,,,,,,,,,,,
1644854345.353504,161.000000,0.000000,4183.974121,4136.794922,4164.871582,4128.205078,4070.769287,4171.922852,4187.179688,4189.615234,4187.179688,4192.692383,3851.281982,4173.461426,3933.589844,4149.230957,3533.000000,4.000000,86.000000,,,,0.000000,4.000000,4.000000,4.000000,4.000000,4.000000,4.000000,4.000000,4.000000,4.000000,4.000000,4.000000,4.000000,4.000000,4.000000,100.000000,,,,,,,,,,,,,,,,
1644854345.357444,162.000000,0.000000,4182.692383,4145.256348,4165.384766,4144.487305,4071.666748,4173.205078,4186.153809,4195.000000,4194.743652,4199.102539,3854.871826,4175.769043,3947.435791,4151.025879,3567.000000,4.000000,86.000000,,,,0.000000,4.000000,4.000000,4.000000,4.000000,4.000000,4.000000,4.000000,4.000000,4.000000,4.000000,4.000000,4.000000,4.000000,4.000000,100.000000,,,,,,,,,,,,,,,,
1644854345.361384,163.000000,0.000000,4178.589844,4154.871582,4162.307617,4156.666504,4075.128174,4172.179688,4185.384766,4197.436035,4199.230957,4207.051270,3846.666748,4173.846191,3958.589844,4152.948730,2444.000000,4.000000,86.000000,,,,0.000000,4.000000,4.000000,4.000000,4.000000,4.000000,4.000000,4.000000,4.000000,4.000000,4.000000,4.000000,4.000000,4.000000,4.000000,100.000000,,,,,,,,,,,,,,,,
1644854345.365325,164.000000,0.000000,4178.205078,4163.333496,4158.589844,4158.077148,4080.128174,4170.769043,4185.641113,4195.769043,4199.358887,4211.666504,3833.205078,4170.000000,3963.718018,4156.025879,3357.000000,4.000000,86.000000,,,,0.000000,4.000000,4.000000,4.000000,4.000000,4.000000,4.000000,4.000000,4.000000,4.000000,4.000000,4.000000,4.000000,4.000000,4.000000,100.000000,,,,,,,,,,,,,,,,
1644854345.369265,165.000000,0.000000,4185.128418,4168.077148,4156.410156,4149.230957,4083.974365,4170.769043,4185.384766,4191.153809,4196.666504,4211.282227,3826.666748,4167.948730,3963.076904,4158.717773,3533.000000,4.000000,86.000000,,,,0.000000,4.000000,4.000000,4.000000,4.000000,4.000000,4.000000,4.000000,4.000000,4.000000,4.000000,4.000000,4.000000,4.000000,4.000000,100.000000,,,,,,,,,,,,,,,,
1644854345.373205,166.000000,0.000000,4194.102539,4167.820313,4156.410156,4137.436035,4084.230713,4172.692383,4183.205078,4186.922852,4193.717773,4208.461426,3832.948730,4170.128418,3958.205078,4158.205078,3567.000000,4.000000,86.000000,,,,0.000000,4.000000,4.000000,4.000000,4.000000,4.000000,4.000000,4.000000,4.000000,4.000000,4.000000,4.000000,4.000000,4.000000,4.000000,100.000000,,,,,,,,,,,,,,,,
1644854345.377145,167.000000,0.000000,4195.128418,4162.179688,4157.563965,4131.282227,4079.487061,4174.358887,4180.384766,4185.641113,4191.538574,4206.282227,3845.512939,4175.769043,3950.384521,4153.461426,2444.000000,4.000000,86.000000,,,,0.000000,4.000000,4.000000,4.000000,4.000000,4.000000,4.000000,4.000000,4.000000,4.000000,4.000000,4.000000,4.000000,4.000000,4.000000,100.000000,,,,,,,,,,,,,,,,
1644854345.381085,168.000000,0.000000,4183.846191,4153.974121,4159.230957,4134.102539,4071.153809,4173.846191,4179.230957,4186.666504,4189.230957,4205.384766,3851.794922,4181.538574,3941.153809,4146.153809,3357.000000,4.000000,86.000000,,,,0.000000,4.000000,4.000000,4.000000,4.000000,4.000000,4.000000,4.000000,4.000000,4.000000,4.000000,4.000000,4.000000,4.000000,4.000000,100.000000,,,,,,,,,,,,,,,,
1644854345.385025,169.000000,0.000000,4166.538574,4146.538574,4160.897461,4141.922852,4063.974365,4170.897461,4180.641113,4187.307617,4186.153809,4204.102539,3844.743652,4183.589844,3934.743652,4139.102539,3533.000000,4.000000,86.000000,,,,0.000000,4.000000,4.000000,4.000000,4.000000,4.000000,4.000000,4.000000,4.000000,4.000000,4.000000,4.000000,4.000000,4.000000,4.000000,100.000000,,,,,,,,,,,,,,,,
1644854345.388965,170.000000,0.000000,4154.487305,4142.820313,4162.051270,4148.205078,4063.205078,4168.077148,4182.179688,4185.384766,4182.692383,4200.897461,3829.358887,4180.512695,3935.128174,4135.000000,3567.000000,4.000000,86.000000,,,,0.000000,4.000000,4.000000,4.000000,4.000000,4.000000,4.000000,4.000000,4.000000,4.000000,4.000000,4.000000,4.000000,4.000000,4.000000,100.000000,,,,,,,,,,,,,,,,
1644854345.392905,171.000000,0.000000,4153.717773,4143.205078,4162.436035,4148.974121,4071.281982,4168.333496,4182.307617,4182.051270,4180.256348,4196.794922,3817.307617,4173.589844,3942.179443,4135.128418,2444.000000,4.000000,86.000000,,,,0.000000,4.000000,4.000000,4.000000,4.000000,4.000000,4.000000,4.000000,4.000000,4.000000,4.000000,4.000000,4.000000,4.000000,4.000000,100.000000,,,,,,,,,,,,,,,,
1644854345.396845,172.000000,0.000000,4161.025879,4146.282227,4162.051270,4145.512695,4086.153809,4172.307617,4181.666504,4180.128418,4179.743652,4193.077148,3816.410156,4165.897461,3950.512939,4140.000000,3357.000000,4.000000,86.000000,,,,0.000000,4.000000,4.000000,4.000000,4.000000,4.000000,4.000000,4.000000,4.000000,4.000000,4.000000,4.000000,4.000000,4.000000,4.000000,100.000000,,,,,,,,,,,,,,,,
1644854345.400785,173.000000,0.000000,4168.461426,4150.000000,4161.282227,4141.282227,4101.025879,4178.461426,4182.692383,4181.666504,4180.897461,4189.487305,3825.000000,4159.615234,3953.974365,4147.436035,3533.000000,4.000000,86.000000,,,,0.000000,4.000000,4.000000,4.000000,4.000000,4.000000,4.000000,4.000000,4.000000,4.000000,4.000000,4.000000,4.000000,4.000000,4.000000,100.000000,,,,,,,,,,,,,,,,
1644854345.404726,174.000000,0.000000,4171.666504,4152.692383,4159.871582,4137.436035,4108.846191,4183.717773,4185.512695,4185.384766,4181.922852,4184.358887,3834.358887,4155.512695,3950.897461,4153.333496,3567.000000,4.000000,86.000000,,,,0.000000,4.000000,4.000000,4.000000,4.000000,4.000000,4.000000,4.000000,4.000000,4.000000,4.000000,4.000000,4.000000,4.000000,4.000000,100.000000,,,,,,,,,,,,,,,,
1644854345.408766,175.000000,0.000000,4171.666504,4153.205078,4157.692383,4133.077148,4106.410156,4185.384766,4187.692383,4187.948730,4181.538574,4177.436035,3836.538574,4152.948730,3945.128174,4153.717773,2444.000000,4.000000,86.000000,,,,0.000000,4.000000,4.000000,4.000000,4.000000,4.000000,4.000000,4.000000,4.000000,4.000000,4.000000,4.000000,4.000000,4.000000,4.000000,100.000000,,,,,,,,,,,,,,,,
1644854345.412706,176.000000,0.000000,4172.436035,4150.897461,4155.128418,4128.333496,4096.794922,4183.333496,4186.794922,4187.051270,4179.871582,4171.153809,3830.641113,4152.563965,3941.153809,4148.333496,3357.000000,4.000000,86.000000,,,,0.000000,4.000000,4.000000,4.000000,4.000000,4.000000,4.000000,4.000000,4.000000,4.000000,4.000000,4.000000,4.000000,4.000000,4.000000,100.000000,,,,,,,,,,,,,,,,
1644854345.416646,177.000000,0.000000,4174.871582,4145.897461,4153.461426,4126.025879,4087.051270,4178.846191,4184.358887,4183.461426,4178.589844,4169.230957,3821.538574,4155.897461,3939.102539,4141.282227,3533.000000,4.000000,86.000000,,,,0.000000,4.000000,4.000000,4.000000,4.000000,4.000000,4.000000,4.000000,4.000000,4.000000,4.000000,4.000000,4.000000,4.000000,4.000000,100.000000,,,,,,,,,,,,,,,,
1644854345.420586,178.000000,0.000000,4176.410156,4140.128418,4153.717773,4129.230957,4083.076904,4174.743652,4183.846191,4181.025879,4179.230957,4173.461426,3816.153809,4162.948730,3936.794922,4137.563965,3567.000000,4.000000,86.000000,,,,0.000000,4.000000,4.000000,4.000000,4.000000,4.000000,4.000000,4.000000,4.000000,4.000000,4.000000,4.000000,4.000000,4.000000,4.000000,100.000000,,,,,,,,,,,,,,,,
1644854345.424526,179.000000,0.000000,4174.230957,4137.307617,4156.025879,4138.974121,4086.538574,4173.846191,4186.922852,4182.820313,4182.948730,4182.692383,3819.871826,4171.153809,3933.846191,4138.717773,2444.000000,4.000000,86.000000,,,,0.000000,4.000000,4.000000,4.000000,4.000000,4.000000,4.000000,4.000000,4.000000,4.000000,4.000000,4.000000,4.000000,4.000000,4.000000,100.000000,,,,,,,,,,,,,,,,
1644854345.428466,180.000000,0.000000,4170.256348,4141.666504,4159.743652,4152.692383,4094.871826,4177.563965,4191.282227,4189.230957,4189.487305,4194.358887,3833.589844,4177.436035,3934.615479,4142.948730,3357.000000,4.000000,86.000000,,,,0.000000,4.000000,4.000000,4.000000,4.000000,4.000000,4.000000,4.000000,4.000000,4.000000,4.000000,4.000000,4.000000,4.000000,4.000000,100.000000,,,,,,,,,,,,,,,,
1644854345.432406,181.000000,0.000000,4169.487305,4153.974121,4163.974121,4165.128418,4104.487305,4185.256348,4194.102539,4196.794922,4197.820313,4206.153809,3853.846191,4180.128418,3944.230713,4149.102539,3533.000000,4.000000,86.000000,,,,0.000000,4.000000,4.000000,4.000000,4.000000,4.000000,4.000000,4.000000,4.000000,4.000000,4.000000,4.000000,4.000000,4.000000,4.000000,100.000000,,,,,,,,,,,,,,,,
1644854345.436346,182.000000,0.000000,4175.512695,4169.871582,4168.333496,4171.666504,4112.436035,4193.717773,4195.256348,4202.051270,4205.384766,4216.153809,3873.718018,4180.641113,3963.333252,4157.948730,3567.000000,4.000000,86.000000,,,,0.000000,4.000000,4.000000,4.000000,4.000000,4.000000,4.000000,4.000000,4.000000,4.000000,4.000000,4.000000,4.000000,4.000000,4.000000,100.000000,,,,,,,,,,,,,,,,
1644854345.440286,183.000000,0.000000,4186.538574,4181.922852,4173.077148,4171.666504,4117.820313,4198.717773,4196.538574,4204.358887,4210.000000,4222.307617,3886.281982,4181.666504,3985.128174,4168.974121,2444.000000,4.000000,86.000000,,,,0.000000,4.000000,4.000000,4.000000,4.000000,4.000000,4.000000,4.000000,4.000000,4.000000,4.000000,4.000000,4.000000,4.000000,4.000000,100.000000,,,,,,,,,,,,,,,,
1644854345.444227,184.000000,0.000000,4196.153809,4184.487305,4177.307617,4168.461426,4121.153809,4198.461426,4198.589844,4205.128418,4211.025879,4224.102539,3887.179443,4185.128418,3999.487061,4178.333496,3357.000000,4.000000,86.000000,,,,0.000000,4.000000,4.000000,4.000000,4.000000,4.000000,4.000000,4.000000,4.000000,4.000000,4.000000,4.000000,4.000000,4.000000,4.000000,100.000000,,,,,,,,,,,,,,,,
1644854345.448167,185.000000,0.000000,4199.102539,4177.948730,4179.358887,4165.000000,4123.333496,4194.615234,4199.487305,4206.410156,4210.384766,4223.077148,3877.692383,4190.128418,3999.871826,4180.897461,3533.000000,4.000000,86.000000,,,,0.000000,4.000000,4.000000,4.000000,4.000000,4.000000,4.000000,4.000000,4.000000,4.000000,4.000000,4.000000,4.000000,4.000000,4.000000,100.000000,,,,,,,,,,,,,,,,
1644854345.452107,186.000000,0.000000,4195.769043,4168.077148,4178.205078,4160.897461,4123.589844,4190.512695,4197.563965,4208.077148,4209.743652,4221.922852,3864.871826,4193.333496,3988.718018,4175.128418,3567.000000,4.000000,86.000000,,,,0.000000,4.000000,4.000000,4.000000,4.000000,4.000000,4.000000,4.000000,4.000000,4.000000,4.000000,4.000000,4.000000,4.000000,4.000000,100.000000,,,,,,,,,,,,,,,,
1644854345.456047,187.000000,0.000000,4191.794922,4161.025879,4175.256348,4153.333496,4121.410156,4188.846191,4193.846191,4208.461426,4209.615234,4221.538574,3857.948730,4192.051270,3975.769287,4165.897461,2444.000000,4.000000,86.000000,,,,0.000000,4.000000,4.000000,4.000000,4.000000,4.000000,4.000000,4.000000,4.000000,4.000000,4.000000,4.000000,4.000000,4.000000,4.000000,100.000000,,,,,,,,,,,,,,,,
1644854345.459987,188.000000,0.000000,4192.563965,4160.000000,4173.846191,4141.794922,4118.333496,4190.641113,4192.179688,4207.051270,4209.487305,4221.153809,3861.410156,4186.794922,3969.871826,4160.256348,3357.000000,4.000000,86.000000,,,,0.000000,4.000000,4.000000,4.000000,4.000000,4.000000,4.000000,4.000000,4.000000,4.000000,4.000000,4.000000,4.000000,4.000000,4.000000,100.000000,,,,,,,,,,,,,,,,
1644854345.463927,189.000000,0.000000,4197.820313,4163.717773,4175.128418,4131.794922,4117.179688,4194.871582,4194.615234,4205.641113,4209.358887,4219.358887,3871.538574,4181.922852,3972.692383,4161.153809,3533.000000,4.000000,86.000000,,,,0.000000,4.000000,4.000000,4.000000,4.000000,4.000000,4.000000,4.000000,4.000000,4.000000,4.000000,4.000000,4.000000,4.000000,4.000000,100.000000,,,,,,,,,,,,,,,,
1644854345.467867,190.000000,0.000000,4203.077148,4169.102539,4177.820313,4131.282227,4120.512695,4199.230957,4198.974121,4206.282227,4210.512695,4216.410156,3879.487061,4182.179688,3978.205078,4165.769043,3567.000000,4.000000,86.000000,,,,0.000000,4.000000,4.000000,4.000000,4.000000,4.000000,4.000000,4.000000,4.000000,4.000000,4.000000,4.000000,4.000000,4.000000,4.000000,100.000000,,,,,,,,,,,,,,,,
1644854345.471807,191.000000,0.000000,4204.615234,4174.230957,4179.487305,4143.333496,4126.794922,4201.282227,4201.922852,4209.230957,4213.461426,4213.974121,3881.025635,4189.230957,3979.743652,4169.102539,2444.000000,4.000000,86.000000,,,,0.000000,4.000000,4.000000,4.000000,4.000000,4.000000,4.000000,4.000000,4.000000,4.000000,4.000000,4.000000,4.000000,4.000000,4.000000,100.000000,,,,,,,,,,,,,,,,
1644854345.475747,192.000000,0.000000,4203.077148,4178.717773,4179.102539,4162.563965,4131.025879,4200.641113,4202.307617,4212.948730,4217.051270,4213.717773,3878.974365,4199.615234,3976.538574,4170.000000,3357.000000,4.000000,86.000000,,,,0.000000,4.000000,4.000000,4.000000,4.000000,4.000000,4.000000,4.000000,4.000000,4.000000,4.000000,4.000000,4.000000,4.000000,4.000000,100.000000,,,,,,,,,,,,,,,,
1644854345.479787,193.000000,0.000000,4201.025879,4182.436035,4178.205078,4179.102539,4128.974121,4198.717773,4202.307617,4215.128418,4219.743652,4216.794922,3880.769287,4207.179688,3974.230713,4171.282227,3533.000000,4.000000,86.000000,,,,0.000000,4.000000,4.000000,4.000000,4.000000,4.000000,4.000000,4.000000,4.000000,4.000000,4.000000,4.000000,4.000000,4.000000,4.000000,100.000000,,,,,,,,,,,,,,,,
1644854345.483728,194.000000,0.000000,4200.000000,4184.102539,4179.102539,4186.794922,4122.307617,4198.333496,4203.589844,4214.743652,4219.615234,4222.820313,3890.000000,4207.563965,3979.102539,4175.641113,3567.000000,4.000000,86.000000,,,,0.000000,4.000000,4.000000,4.000000,4.000000,4.000000,4.000000,4.000000,4.000000,4.000000,4.000000,4.000000,4.000000,4.000000,4.000000,100.000000,,,,,,,,,,,,,,,,
1644854345.487668,195.000000,0.000000,4198.333496,4182.948730,4182.051270,4186.538574,4117.820313,4200.128418,4205.384766,4212.051270,4216.538574,4228.589844,3902.692383,4201.538574,3990.384521,4181.922852,2444.000000,4.000000,86.000000,,,,0.000000,4.000000,4.000000,4.000000,4.000000,4.000000,4.000000,4.000000,4.000000,4.000000,4.000000,4.000000,4.000000,4.000000,4.000000,100.000000,,,,,,,,,,,,,,,,
1644854345.491608,196.000000,0.000000,4194.487305,4179.358887,4185.512695,4182.436035,4121.794922,4202.820313,4205.512695,4208.589844,4211.922852,4230.384766,3909.358887,4193.461426,4001.025635,4186.410156,3357.000000,4.000000,86.000000,,,,0.000000,4.000000,4.000000,4.000000,4.000000,4.000000,4.000000,4.000000,4.000000,4.000000,4.000000,4.000000,4.000000,4.000000,4.000000,100.000000,,,,,,,,,,,,,,,,
1644854345.495548,197.000000,0.000000,4189.358887,4174.230957,4187.051270,4176.410156,4133.333496,4203.717773,4203.333496,4206.025879,4207.692383,4225.641113,3902.820557,4188.205078,4002.820557,4186.025879,3533.000000,4.000000,86.000000,,,,0.000000,4.000000,4.000000,4.000000,4.000000,4.000000,4.000000,4.000000,4.000000,4.000000,4.000000,4.000000,4.000000,4.000000,4.000000,100.000000,,,,,,,,,,,,,,,,
1644854345.499488,198.000000,0.000000,4185.641113,4168.589844,4185.512695,4167.307617,4144.487305,4202.051270,4201.282227,4205.384766,4204.358887,4215.897461,3884.358887,4187.051270,3993.076904,4180.641113,3567.000000,4.000000,86.000000,,,,0.000000,4.000000,4.000000,4.000000,4.000000,4.000000,4.000000,4.000000,4.000000,4.000000,4.000000,4.000000,4.000000,4.000000,4.000000,100.000000,,,,,,,,,,,,,,,,
1644854345.503428,199.000000,0.000000,4185.897461,4163.846191,4182.692383,4156.025879,4148.077148,4199.102539,4201.025879,4205.384766,4201.666504,4206.538574,3864.615479,4188.589844,3976.666748,4173.205078,2444.000000,4.000000,86.000000,,,,0.000000,4.000000,4.000000,4.000000,4.000000,4.000000,4.000000,4.000000,4.000000,4.000000,4.000000,4.000000,4.000000,4.000000,4.000000,100.000000,,,,,,,,,,,,,,,,
1644854345.507368,200.000000,0.000000,4191.282227,4161.666504,4181.025879,4147.692383,4144.102539,4197.307617,4201.922852,4204.102539,4199.487305,4203.205078,3856.923096,4190.512695,3962.307617,4167.051270,3357.000000,4.000000,86.000000,,,,0.000000,4.000000,4.000000,4.000000,4.000000,4.000000,4.000000,4.000000,4.000000,4.000000,4.000000,4.000000,4.000000,4.000000,4.000000,100.000000,,,,,,,,,,,,,,,,
1644854345.511308,201.000000,0.000000,4200.128418,4164.743652,4181.666504,4148.205078,4139.102539,4197.820313,4201.922852,4200.769043,4198.846191,4207.051270,3867.435791,4191.538574,3957.051270,4165.000000,3533.000000,4.000000,86.000000,,,,0.000000,4.000000,4.000000,4.000000,4.000000,4.000000,4.000000,4.000000,4.000000,4.000000,4.000000,4.000000,4.000000,4.000000,4.000000,100.000000,,,,,,,,,,,,,,,,
1644854345.515248,202.000000,0.000000,4209.230957,4173.205078,4184.102539,4157.948730,4139.102539,4200.128418,4200.769043,4197.563965,4200.641113,4214.743652,3889.743652,4192.051270,3961.410156,4166.922852,3567.000000,4.000000,86.000000,,,,0.000000,4.000000,4.000000,4.000000,4.000000,4.000000,4.000000,4.000000,4.000000,4.000000,4.000000,4.000000,4.000000,4.000000,4.000000,100.000000,,,,,,,,,,,,,,,,
1644854345.519188,203.000000,0.000000,4216.025879,4183.846191,4187.307617,4171.025879,4144.743652,4202.051270,4200.000000,4197.563965,4204.230957,4221.410156,3910.256348,4193.333496,3970.897461,4170.897461,2444.000000,4.000000,86.000000,,,,0.000000,4.000000,4.000000,4.000000,4.000000,4.000000,4.000000,4.000000,4.000000,4.000000,4.000000,4.000000,4.000000,4.000000,4.000000,100.000000,,,,,,,,,,,,,,,,
1644854345.523129,204.000000,0.000000,4220.000000,4191.538574,4190.384766,4180.641113,4151.794922,4202.436035,4201.410156,4201.666504,4208.205078,4225.256348,3918.718018,4195.897461,3980.256348,4173.846191,3357.000000,4.000000,86.000000,,,,0.000000,4.000000,4.000000,4.000000,4.000000,4.000000,4.000000,4.000000,4.000000,4.000000,4.000000,4.000000,4.000000,4.000000,4.000000,100.000000,,,,,,,,,,,,,,,,
1644854345.527069,205.000000,0.000000,4221.538574,4192.179688,4192.563965,4183.205078,4154.743652,4202.179688,4204.102539,4207.692383,4211.025879,4226.922852,3914.615479,4199.230957,3987.051270,4177.692383,3533.000000,4.000000,86.000000,,,,0.000000,4.000000,4.000000,4.000000,4.000000,4.000000,4.000000,4.000000,4.000000,4.000000,4.000000,4.000000,4.000000,4.000000,4.000000,100.000000,,,,,,,,,,,,,,,,
1644854345.531009,206.000000,0.000000,4220.769043,4186.025879,4193.205078,4178.974121,4151.410156,4202.436035,4205.769043,4212.179688,4212.179688,4227.307617,3905.641113,4202.051270,3991.794922,4192.820313,3567.000000,4.000000,86.000000,,,,0.000000,4.000000,4.000000,4.000000,4.000000,4.000000,4.000000,4.000000,4.000000,4.000000,4.000000,4.000000,4.000000,4.000000,4.000000,100.000000,,,,,,,,,,,,,,,,
1644854345.534949,207.000000,0.000000,4216.538574,4177.563965,4192.563965,4171.153809,4143.974121,4203.205078,4205.641113,4213.846191,4211.794922,4225.256348,3900.384521,4203.205078,3995.384521,4224.871582,2444.000000,4.000000,86.000000,,,,0.000000,4.000000,4.000000,4.000000,4.000000,4.000000,4.000000,4.000000,4.000000,4.000000,4.000000,4.000000,4.000000,4.000000,4.000000,100.000000,,,,,,,,,,,,,,,,
1644854345.538889,208.000000,0.000000,4207.820313,4172.179688,4191.282227,4165.512695,4137.820313,4203.974121,4205.512695,4213.846191,4211.282227,4219.871582,3903.076904,4202.436035,3997.692383,4246.922852,3357.000000,4.000000,86.000000,,,,0.000000,4.000000,4.000000,4.000000,4.000000,4.000000,4.000000,4.000000,4.000000,4.000000,4.000000,4.000000,4.000000,4.000000,4.000000,100.000000,,,,,,,,,,,,,,,,
1644854345.542829,209.000000,0.000000,4196.794922,4172.948730,4190.256348,4167.179688,4137.820313,4204.487305,4206.922852,4214.743652,4211.794922,4212.820313,3911.281982,4200.641113,3998.461426,4205.769043,3533.000000,4.000000,86.000000,,,,0.000000,4.000000,4.000000,4.000000,4.000000,4.000000,4.000000,4.000000,4.000000,4.000000,4.000000,4.000000,4.000000,4.000000,4.000000,100.000000,,,,,,,,,,,,,,,,
1644854345.546769,210.000000,0.000000,4187.436035,4178.717773,4188.974121,4175.641113,4145.512695,4205.000000,4208.974121,4217.436035,4213.717773,4209.102539,3919.615479,4198.589844,3997.564209,4091.281982,3567.000000,4.000000,86.000000,,,,0.000000,4.000000,4.000000,4.000000,4.000000,4.000000,4.000000,4.000000,4.000000,4.000000,4.000000,4.000000,4.000000,4.000000,4.000000,100.000000,,,,,,,,,,,,,,,,
1644854345.550609,211.000000,0.000000,4184.230957,4184.358887,4187.051270,4182.948730,4158.589844,4206.282227,4209.743652,4220.641113,4216.538574,4212.692383,3922.051270,4196.922852,3995.128174,3990.384521,2444.000000,4.000000,86.000000,,,,0.000000,4.000000,4.000000,4.000000,4.000000,4.000000,4.000000,4.000000,4.000000,4.000000,4.000000,4.000000,4.000000,4.000000,4.000000,100.000000,,,,,,,,,,,,,,,,
1644854345.554550,212.000000,0.000000,4188.077148,4184.743652,4183.717773,4179.102539,4170.512695,4208.077148,4208.589844,4222.820313,4219.487305,4222.948730,3917.051270,4195.512695,3991.666748,4025.000000,3357.000000,4.000000,86.000000,,,,0.000000,4.000000,4.000000,4.000000,4.000000,4.000000,4.000000,4.000000,4.000000,4.000000,4.000000,4.000000,4.000000,4.000000,4.000000,100.000000,,,,,,,,,,,,,,,,
1644854345.558490,213.000000,0.000000,4195.769043,4177.820313,4180.384766,4162.051270,4173.846191,4209.487305,4207.051270,4222.820313,4221.153809,4234.358887,3908.589844,4194.358887,3987.564209,4202.179688,3533.000000,4.000000,86.000000,,,,0.000000,4.000000,4.000000,4.000000,4.000000,4.000000,4.000000,4.000000,4.000000,4.000000,4.000000,4.000000,4.000000,4.000000,4.000000,100.000000,,,,,,,,,,,,,,,,
1644854345.562430,214.000000,0.000000,4203.333496,4167.692383,4179.487305,4140.769043,4165.000000,4208.846191,4207.179688,4221.153809,4221.025879,4241.153809,3904.358887,4194.487305,3984.102539,4342.563965,3567.000000,4.000000,86.000000,,,,0.000000,4.000000,4.000000,4.000000,4.000000,4.000000,4.000000,4.000000,4.000000,4.000000,4.000000,4.000000,4.000000,4.000000,4.000000,100.000000,,,,,,,,,,,,,,,,
1644854345.566370,215.000000,0.000000,4209.102539,4161.282227,4182.563965,4129.743652,4148.077148,4206.410156,4208.717773,4219.102539,4219.487305,4241.025879,3910.128174,4196.794922,3984.487061,4201.666504,2444.000000,4.000000,86.000000,,,,0.000000,4.000000,4.000000,4.000000,4.000000,4.000000,4.000000,4.000000,4.000000,4.000000,4.000000,4.000000,4.000000,4.000000,4.000000,100.000000,,,,,,,,,,,,,,,,
1644854345.570310,216.000000,0.000000,4213.717773,4162.692383,4188.589844,4137.820313,4132.820313,4203.846191,4209.487305,4218.077148,4217.948730,4236.282227,3924.358887,4201.282227,3990.897461,3708.076904,3357.000000,4.000000,86.000000,,,,0.000000,4.000000,4.000000,4.000000,4.000000,4.000000,4.000000,4.000000,4.000000,4.000000,4.000000,4.000000,4.000000,4.000000,4.000000,100.000000,,,,,,,,,,,,,,,,
1644854345.574250,217.000000,0.000000,4217.948730,4170.256348,4194.615234,4161.282227,4128.846191,4202.820313,4208.589844,4218.589844,4217.692383,4231.794922,3938.718018,4206.538574,4001.410156,3097.948730,3533.000000,4.000000,86.000000,,,,0.000000,4.000000,4.000000,4.000000,4.000000,4.000000,4.000000,4.000000,4.000000,4.000000,4.000000,4.000000,4.000000,4.000000,4.000000,100.000000,,,,,,,,,,,,,,,,
1644854345.578190,218.000000,0.000000,4220.769043,4177.692383,4198.077148,4188.333496,4139.102539,4203.589844,4207.179688,4220.384766,4219.102539,4230.512695,3943.589844,4211.025879,4010.769287,2803.718018,3567.000000,4.000000,86.000000,,,,0.000000,4.000000,4.000000,4.000000,4.000000,4.000000,4.000000,4.000000,4.000000,4.000000,4.000000,4.000000,4.000000,4.000000,4.000000,100.000000,,,,,,,,,,,,,,,,
1644854345.582130,219.000000,0.000000,4219.615234,4180.256348,4198.461426,4206.666504,4156.666504,4205.128418,4207.436035,4221.922852,4220.769043,4231.922852,3936.281982,4213.461426,4013.846191,3160.512939,2444.000000,4.000000,86.000000,,,,0.000000,4.000000,4.000000,4.000000,4.000000,4.000000,4.000000,4.000000,4.000000,4.000000,4.000000,4.000000,4.000000,4.000000,4.000000,100.000000,,,,,,,,,,,,,,,,
1644854345.586070,220.000000,0.000000,4213.333496,4177.692383,4196.794922,4211.153809,4170.512695,4206.666504,4209.487305,4221.922852,4221.666504,4232.820313,3923.076904,4213.461426,4010.897461,4156.666504,3357.000000,4.000000,86.000000,,,,0.000000,4.000000,4.000000,4.000000,4.000000,4.000000,4.000000,4.000000,4.000000,4.000000,4.000000,4.000000,4.000000,4.000000,4.000000,100.000000,,,,,,,,,,,,,,,,
1644854345.590010,221.000000,0.000000,4204.743652,4173.974121,4194.743652,4205.641113,4173.333496,4208.333496,4211.282227,4220.256348,4222.051270,4230.512695,3914.615479,4211.666504,4005.769287,5421.538574,3533.000000,4.000000,86.000000,,,,0.000000,4.000000,4.000000,4.000000,4.000000,4.000000,4.000000,4.000000,4.000000,4.000000,4.000000,4.000000,4.000000,4.000000,4.000000,100.000000,,,,,,,,,,,,,,,,
1644854345.593951,222.000000,0.000000,4199.102539,4173.333496,4193.205078,4200.000000,4166.794922,4209.871582,4211.410156,4218.333496,4222.436035,4224.871582,3917.820557,4209.230957,4002.051270,6460.769043,3567.000000,4.000000,86.000000,,,,0.000000,4.000000,4.000000,4.000000,4.000000,4.000000,4.000000,4.000000,4.000000,4.000000,4.000000,4.000000,4.000000,4.000000,4.000000,100.000000,,,,,,,,,,,,,,,,
1644854345.597891,223.000000,0.000000,4199.743652,4177.051270,4192.692383,4201.282227,4158.846191,4210.000000,4210.897461,4218.077148,4222.563965,4218.461426,3930.512939,4206.666504,4000.128174,6963.717773,2444.000000,4.000000,86.000000,,,,0.000000,4.000000,4.000000,4.000000,4.000000,4.000000,4.000000,4.000000,4.000000,4.000000,4.000000,4.000000,4.000000,4.000000,4.000000,100.000000,,,,,,,,,,,,,,,,
1644854345.601831,224.000000,0.000000,4204.230957,4182.051270,4191.666504,4208.333496,4156.025879,4207.563965,4210.897461,4219.358887,4221.282227,4214.615234,3943.076904,4203.461426,3998.589844,6960.769043,3357.000000,4.000000,86.000000,,,,0.000000,4.000000,4.000000,4.000000,4.000000,4.000000,4.000000,4.000000,4.000000,4.000000,4.000000,4.000000,4.000000,4.000000,4.000000,100.000000,,,,,,,,,,,,,,,,
1644854345.605771,225.000000,0.000000,4204.743652,4183.974121,4188.461426,4211.153809,4158.846191,4202.307617,4210.512695,4220.256348,4217.692383,4215.769043,3947.692383,4198.589844,3995.897461,6731.794922,3533.000000,4.000000,86.000000,,,,0.000000,4.000000,4.000000,4.000000,4.000000,4.000000,4.000000,4.000000,4.000000,4.000000,4.000000,4.000000,4.000000,4.000000,4.000000,100.000000,,,,,,,,,,,,,,,,
1644854345.609711,226.000000,0.000000,4194.871582,4180.897461,4182.051270,4200.897461,4163.077148,4195.897461,4207.820313,4218.461426,4212.820313,4221.666504,3943.333252,4192.307617,3992.179443,6565.897461,3567.000000,4.000000,86.000000,,,,0.000000,4.000000,4.000000,4.000000,4.000000,4.000000,4.000000,4.000000,4.000000,4.000000,4.000000,4.000000,4.000000,4.000000,4.000000,100.000000,,,,,,,,,,,,,,,,
1644854345.613651,227.000000,0.000000,4177.051270,4174.487305,4175.256348,4180.000000,4164.487305,4191.025879,4202.563965,4213.974121,4208.974121,4228.846191,3935.897461,4186.025879,3989.230713,6566.153809,2444.000000,4.000000,86.000000,,,,0.000000,4.000000,4.000000,4.000000,4.000000,4.000000,4.000000,4.000000,4.000000,4.000000,4.000000,4.000000,4.000000,4.000000,4.000000,100.000000,,,,,,,,,,,,,,,,
1644854345.617691,228.000000,0.000000,4162.436035,4170.000000,4172.692383,4162.307617,4162.179688,4190.641113,4198.846191,4210.128418,4208.333496,4232.307617,3930.769287,4183.205078,3988.461426,6637.051270,3357.000000,4.000000,86.000000,,,,0.000000,4.000000,4.000000,4.000000,4.000000,4.000000,4.000000,4.000000,4.000000,4.000000,4.000000,4.000000,4.000000,4.000000,4.000000,100.000000,,,,,,,,,,,,,,,,
1644854345.621631,229.000000,0.000000,4162.563965,4171.025879,4177.179688,4160.897461,4158.717773,4195.897461,4200.769043,4211.282227,4211.282227,4229.230957,3927.435791,4186.153809,3990.897461,6629.871582,3533.000000,4.000000,86.000000,,,,0.000000,4.000000,4.000000,4.000000,4.000000,4.000000,4.000000,4.000000,4.000000,4.000000,4.000000,4.000000,4.000000,4.000000,4.000000,100.000000,,,,,,,,,,,,,,,,
1644854345.625571,230.000000,0.000000,4180.000000,4176.922852,4186.666504,4177.051270,4157.820313,4204.358887,4207.563965,4218.333496,4216.153809,4221.538574,3922.051270,4193.974121,3995.512939,6495.512695,3567.000000,4.000000,86.000000,1,1,0,0.000000,4.000000,4.000000,4.000000,4.000000,4.000000,4.000000,4.000000,4.000000,4.000000,4.000000,4.000000,4.000000,4.000000,4.000000,100.000000,,,,,,,,,,,,,,,,
1644854345.629511,231.000000,0.000000,4205.512695,4183.205078,4195.641113,4200.384766,4161.282227,4211.666504,4213.974121,4227.563965,4220.897461,4214.358887,3914.743652,4202.051270,3999.871826,6305.000000,2444.000000,4.000000,86.000000,,,,0.000000,4.000000,4.000000,4.000000,4.000000,4.000000,4.000000,4.000000,4.000000,4.000000,4.000000,4.000000,4.000000,4.000000,4.000000,100.000000,,,,,,,,,,,,,,,,
1644854345.633452,232.000000,0.000000,4225.128418,4185.512695,4199.743652,4219.230957,4167.179688,4214.487305,4215.641113,4232.948730,4223.846191,4212.948730,3911.794922,4205.000000,4002.564209,6146.666504,3357.000000,4.000000,86.000000,,,,0.000000,4.000000,4.000000,4.000000,4.000000,4.000000,4.000000,4.000000,4.000000,4.000000,4.000000,4.000000,4.000000,4.000000,4.000000,100.000000,,,,,,,,,,,,,,,,
1644854345.637392,233.000000,0.000000,4230.897461,4184.102539,4198.589844,4227.179688,4172.179688,4213.461426,4213.333496,4231.794922,4224.230957,4218.461426,3918.974365,4200.641113,4003.461426,6040.128418,3533.000000,4.000000,86.000000,,,,0.000000,4.000000,4.000000,4.000000,4.000000,4.000000,4.000000,4.000000,4.000000,4.000000,4.000000,4.000000,4.000000,4.000000,4.000000,100.000000,,,,,,,,,,,,,,,,
1644854345.641232,234.000000,0.000000,4224.615234,4182.820313,4195.000000,4223.589844,4174.230957,4211.410156,4211.538574,4226.666504,4222.563965,4227.179688,3934.615479,4192.051270,4004.358887,5951.794922,3567.000000,4.000000,86.000000,,,,0.000000,4.000000,4.000000,4.000000,4.000000,4.000000,4.000000,4.000000,4.000000,4.000000,4.000000,4.000000,4.000000,4.000000,4.000000,100.000000,,,,,,,,,,,,,,,,
1644854345.645172,235.000000,0.000000,4215.128418,4185.256348,4191.922852,4211.025879,4174.358887,4211.538574,4213.205078,4222.307617,4220.641113,4233.846191,3949.487061,4184.871582,4007.435791,5858.974121,2444.000000,4.000000,86.000000,,,,0.000000,4.000000,4.000000,4.000000,4.000000,4.000000,4.000000,4.000000,4.000000,4.000000,4.000000,4.000000,4.000000,4.000000,4.000000,100.000000,,,,,,,,,,,,,,,,
1644854345.649112,236.000000,0.000000,4210.769043,4190.512695,4191.794922,4194.743652,4174.615234,4214.102539,4216.922852,4221.538574,4220.384766,4235.641113,3955.769287,4183.205078,4013.974365,5769.615234,3357.000000,4.000000,86.000000,,,,0.000000,4.000000,4.000000,4.000000,4.000000,4.000000,4.000000,4.000000,4.000000,4.000000,4.000000,4.000000,4.000000,4.000000,4.000000,100.000000,,,,,,,,,,,,,,,,
1644854345.653052,237.000000,0.000000,4212.820313,4195.000000,4195.512695,4182.051270,4175.512695,4217.307617,4219.102539,4223.461426,4222.692383,4233.717773,3954.487061,4188.205078,4022.051270,5692.307617,3533.000000,4.000000,86.000000,,,,0.000000,4.000000,4.000000,4.000000,4.000000,4.000000,4.000000,4.000000,4.000000,4.000000,4.000000,4.000000,4.000000,4.000000,4.000000,100.000000,,,,,,,,,,,,,,,,
1644854345.656992,238.000000,0.000000,4216.025879,4195.256348,4201.794922,4179.615234,4176.282227,4218.717773,4218.974121,4225.384766,4225.897461,4231.025879,3953.333252,4197.307617,4027.307617,5616.282227,3567.000000,4.000000,86.000000,,,,0.000000,4.000000,4.000000,4.000000,4.000000,4.000000,4.000000,4.000000,4.000000,4.000000,4.000000,4.000000,4.000000,4.000000,4.000000,100.000000,,,,,,,,,,,,,,,,
1644854345.660932,239.000000,0.000000,4213.461426,4191.025879,4207.820313,4188.205078,4176.922852,4217.307617,4217.563965,4226.025879,4227.692383,4228.974121,3957.435791,4205.128418,4026.153809,5526.666504,2444.000000,4.000000,86.000000,,,,0.000000,4.000000,4.000000,4.000000,4.000000,4.000000,4.000000,4.000000,4.000000,4.000000,4.000000,4.000000,4.000000,4.000000,4.000000,100.000000,,,,,,,,,,,,,,,,
1644854345.664872,240.000000,0.000000,4203.077148,4184.615234,4209.615234,4200.897461,4179.487305,4214.487305,4216.410156,4225.512695,4227.436035,4226.538574,3964.615479,4207.948730,4018.718018,5425.897461,3357.000000,4.000000,86.000000,,,,0.000000,4.000000,4.000000,4.000000,4.000000,4.000000,4.000000,4.000000,4.000000,4.000000,4.000000,4.000000,4.000000,4.000000,4.000000,100.000000,,,,,,,,,,,,,,,,
1644854345.668813,241.000000,0.000000,4191.025879,4179.102539,4206.025879,4208.974121,4185.000000,4212.179688,4214.743652,4224.743652,4226.410156,4222.820313,3967.948730,4205.897461,4009.230713,5328.589844,3533.000000,4.000000,86.000000,,,,0.000000,4.000000,4.000000,4.000000,4.000000,4.000000,4.000000,4.000000,4.000000,4.000000,4.000000,4.000000,4.000000,4.000000,4.000000,100.000000,,,,,,,,,,,,,,,,
1644854345.672753,242.000000,0.000000,4185.512695,4177.563965,4199.871582,4208.205078,4190.897461,4211.538574,4212.179688,4224.487305,4226.282227,4218.974121,3963.589844,4202.820313,4003.461426,5244.871582,3567.000000,4.000000,86.000000,,,,0.000000,4.000000,4.000000,4.000000,4.000000,4.000000,4.000000,4.000000,4.000000,4.000000,4.000000,4.000000,4.000000,4.000000,4.000000,100.000000,,,,,,,,,,,,,,,,
1644854345.676793,243.000000,0.000000,4190.512695,4181.153809,4196.025879,4203.077148,4192.051270,4212.179688,4210.128418,4225.000000,4227.307617,4218.717773,3955.641113,4202.563965,4005.256348,5172.179688,2444.000000,4.000000,86.000000,,,,0.000000,4.000000,4.000000,4.000000,4.000000,4.000000,4.000000,4.000000,4.000000,4.000000,4.000000,4.000000,4.000000,4.000000,4.000000,100.000000,,,,,,,,,,,,,,,,
1644854345.680733,244.000000,0.000000,4201.410156,4187.948730,4197.563965,4200.769043,4185.897461,4212.692383,4210.256348,4225.512695,4228.333496,4224.615234,3952.820557,4205.769043,4014.615479,5103.846191,3357.000000,4.000000,86.000000,,,,0.000000,4.000000,4.000000,4.000000,4.000000,4.000000,4.000000,4.000000,4.000000,4.000000,4.000000,4.000000,4.000000,4.000000,4.000000,100.000000,,,,,,,,,,,,,,,,
1644854345.684673,245.000000,0.000000,4209.871582,4194.102539,4203.589844,4205.384766,4176.410156,4211.922852,4212.436035,4225.000000,4228.717773,4235.512695,3961.794922,4209.615234,4027.051270,5035.641113,3533.000000,4.000000,86.000000,,,,0.000000,4.000000,4.000000,4.000000,4.000000,4.000000,4.000000,4.000000,4.000000,4.000000,4.000000,4.000000,4.000000,4.000000,4.000000,100.000000,,,,,,,,,,,,,,,,
1644854345.688613,246.000000,0.000000,4210.128418,4196.153809,4209.358887,4213.205078,4171.025879,4210.256348,4214.230957,4223.077148,4227.820313,4245.256348,3980.128174,4210.769043,4036.666748,4966.538574,3567.000000,4.000000,86.000000,,,,0.000000,4.000000,4.000000,4.000000,4.000000,4.000000,4.000000,4.000000,4.000000,4.000000,4.000000,4.000000,4.000000,4.000000,4.000000,100.000000,,,,,,,,,,,,,,,,
1644854345.692553,247.000000,0.000000,4202.307617,4193.461426,4210.512695,4217.307617,4173.974121,4208.333496,4213.717773,4220.512695,4225.256348,4246.282227,3997.692383,4208.461426,4040.000000,4896.153809,2444.000000,4.000000,86.000000,,,,0.000000,4.000000,4.000000,4.000000,4.000000,4.000000,4.000000,4.000000,4.000000,4.000000,4.000000,4.000000,4.000000,4.000000,4.000000,100.000000,,,,,,,,,,,,,,,,
1644854345.696493,248.000000,0.000000,4190.897461,4187.307617,4205.384766,4213.333496,4182.179688,4207.307617,4211.666504,4218.461426,4221.153809,4235.769043,4003.974365,4204.102539,4036.794922,4825.128418,3357.000000,4.000000,86.000000,,,,0.000000,4.000000,4.000000,4.000000,4.000000,4.000000,4.000000,4.000000,4.000000,4.000000,4.000000,4.000000,4.000000,4.000000,4.000000,100.000000,,,,,,,,,,,,,,,,
1644854345.700433,249.000000,0.000000,4181.666504,4179.615234,4196.666504,4204.230957,4188.717773,4207.436035,4210.384766,4217.692383,4216.025879,4219.871582,3996.025635,4200.000000,4028.718018,4755.769043,3533.000000,4.000000,86.000000,,,,0.000000,4.000000,4.000000,4.000000,4.000000,4.000000,4.000000,4.000000,4.000000,4.000000,4.000000,4.000000,4.000000,4.000000,4.000000,100.000000,,,,,,,,,,,,,,,,
1644854345.704373,250.000000,0.000000,4178.077148,4171.922852,4188.461426,4198.589844,4188.974121,4207.692383,4210.128418,4217.436035,4212.051270,4208.589844,3981.025635,4197.307617,4018.589844,4689.871582,3567.000000,4.000000,86.000000,,,,0.000000,4.000000,4.000000,4.000000,4.000000,4.000000,4.000000,4.000000,4.000000,4.000000,4.000000,4.000000,4.000000,4.000000,4.000000,100.000000,,,,,,,,,,,,,,,,
1644854345.708314,251.000000,0.000000,4179.871582,4166.538574,4184.102539,4203.333496,4184.615234,4207.051270,4209.358887,4216.282227,4211.410156,4209.230957,3969.615479,4196.410156,4010.384521,4627.563965,2444.000000,4.000000,86.000000,,,,0.000000,4.000000,4.000000,4.000000,4.000000,4.000000,4.000000,4.000000,4.000000,4.000000,4.000000,4.000000,4.000000,4.000000,4.000000,100.000000,,,,,,,,,,,,,,,,
1644854345.712254,252.000000,0.000000,4184.487305,4165.769043,4183.717773,4215.769043,4180.641113,4205.128418,4207.051270,4214.230957,4214.358887,4220.641113,3967.820557,4197.307617,4008.205078,4569.102539,3357.000000,4.000000,86.000000,,,,0.000000,4.000000,4.000000,4.000000,4.000000,4.000000,4.000000,4.000000,4.000000,4.000000,4.000000,4.000000,4.000000,4.000000,4.000000,100.000000,,,,,,,,,,,,,,,,
1644854345.716194,253.000000,0.000000,4189.358887,4171.282227,4186.025879,4224.871582,4180.897461,4202.692383,4205.128418,4213.461426,4219.487305,4233.846191,3973.718018,4199.358887,4015.000000,4516.282227,3533.000000,4.000000,86.000000,,,,0.000000,4.000000,4.000000,4.000000,4.000000,4.000000,4.000000,4.000000,4.000000,4.000000,4.000000,4.000000,4.000000,4.000000,4.000000,100.000000,,,,,,,,,,,,,,,,
1644854345.720134,254.000000,0.000000,4194.615234,4181.666504,4188.846191,4220.641113,4184.743652,4200.897461,4205.897461,4215.512695,4224.230957,4240.128418,3980.384521,4201.153809,4028.846191,4470.897461,3567.000000,4.000000,86.000000,,,,0.000000,4.000000,4.000000,4.000000,4.000000,4.000000,4.000000,4.000000,4.000000,4.000000,4.000000,4.000000,4.000000,4.000000,4.000000,100.000000,,,,,,,,,,,,,,,,
1644854345.724074,255.000000,0.000000,4201.666504,4192.820313,4191.410156,4204.743652,4187.948730,4200.384766,4209.102539,4219.615234,4226.282227,4237.563965,3982.564209,4200.897461,4043.205078,4429.615234,113.000000,4.000000,86.000000,,,,0.000000,4.000000,4.000000,4.000000,4.000000,4.000000,4.000000,4.000000,4.000000,4.000000,4.000000,4.000000,4.000000,4.000000,4.000000,100.000000,,,,,,,,,,,,,,,,
1644854345.728014,0.000000,0.000000,4207.948730,4198.846191,4193.333496,4189.487305,4186.538574,4200.256348,4211.282227,4222.948730,4225.512695,4231.282227,3981.153809,4198.846191,4051.410156,4384.487305,3431.000000,4.000000,86.000000,,,,0.000000,4.000000,4.000000,4.000000,4.000000,4.000000,4.000000,4.000000,4.000000,4.000000,4.000000,4.000000,4.000000,4.000000,4.000000,100.000000,,,,,,,,,,,,,,,,
1644854345.731954,1.000000,0.000000,4206.794922,4195.512695,4194.743652,4187.563965,4179.615234,4199.358887,4209.487305,4223.205078,4223.077148,4227.436035,3980.769287,4197.307617,4049.743652,4328.974121,3280.000000,4.000000,86.000000,,,,0.000000,4.000000,4.000000,4.000000,4.000000,4.000000,4.000000,4.000000,4.000000,4.000000,4.000000,4.000000,4.000000,4.000000,4.000000,100.000000,,,,,,,,,,,,,,,,
1644854345.735894,2.000000,0.000000,4193.205078,4183.589844,4195.641113,4201.538574,4171.025879,4197.692383,4205.512695,4220.256348,4220.384766,4227.436035,3984.358887,4198.205078,4040.256348,4265.000000,3673.000000,4.000000,86.000000,,,,0.000000,4.000000,4.000000,4.000000,4.000000,4.000000,4.000000,4.000000,4.000000,4.000000,4.000000,4.000000,4.000000,4.000000,4.000000,100.000000,,,,,,,,,,,,,,,,
1644854345.739834,3.000000,0.000000,4171.538574,4169.358887,4197.051270,4222.692383,4167.436035,4197.051270,4203.205078,4217.051270,4218.846191,4228.589844,3991.923096,4201.666504,4028.718018,4202.436035,3435.000000,4.000000,86.000000,,,,0.000000,4.000000,4.000000,4.000000,4.000000,4.000000,4.000000,4.000000,4.000000,4.000000,4.000000,4.000000,4.000000,4.000000,4.000000,100.000000,,,,,,,,,,,,,,,,
1644854345.743774,4.000000,0.000000,4156.153809,4161.922852,4200.641113,4238.333496,4173.717773,4198.974121,4205.128418,4216.153809,4219.358887,4228.846191,4001.794922,4206.666504,4022.435791,4150.000000,3523.000000,4.000000,86.000000,,,,0.000000,4.000000,4.000000,4.000000,4.000000,4.000000,4.000000,4.000000,4.000000,4.000000,4.000000,4.000000,4.000000,4.000000,4.000000,100.000000,,,,,,,,,,,,,,,,
1644854345.747715,5.000000,0.000000,4160.384766,4168.333496,4206.153809,4241.410156,4188.846191,4204.230957,4209.230957,4218.333496,4222.179688,4229.358887,4013.333252,4211.922852,4025.897461,4109.102539,3477.000000,4.000000,86.000000,2,1,0,0.000000,4.000000,4.000000,4.000000,4.000000,4.000000,4.000000,4.000000,4.000000,4.000000,4.000000,4.000000,4.000000,4.000000,4.000000,100.000000,,,,,,,,,,,,,,,,
1644854345.751755,6.000000,0.000000,4183.974121,4186.538574,4211.922852,4234.743652,4206.282227,4211.153809,4212.307617,4222.436035,4226.025879,4232.692383,4023.846191,4216.538574,4038.846191,4074.230713,2753.000000,4.000000,86.000000,,,,0.000000,4.000000,4.000000,4.000000,4.000000,4.000000,4.000000,4.000000,4.000000,4.000000,4.000000,4.000000,4.000000,4.000000,4.000000,100.000000,,,,,,,,,,,,,,,,
1644854345.755695,7.000000,0.000000,4212.820313,4205.769043,4215.512695,4228.205078,4218.461426,4217.307617,4213.333496,4226.025879,4228.846191,4239.102539,4028.974365,4220.128418,4055.641113,4038.589844,2999.000000,4.000000,86.000000,,,,0.000000,4.000000,4.000000,4.000000,4.000000,4.000000,4.000000,4.000000,4.000000,4.000000,4.000000,4.000000,4.000000,4.000000,4.000000,100.000000,,,,,,,,,,,,,,,,
1644854345.759635,8.000000,0.000000,4229.743652,4214.743652,4216.282227,4229.358887,4221.538574,4220.769043,4213.974121,4227.563965,4229.358887,4246.025879,4026.410156,4222.307617,4068.974365,3998.974365,3288.000000,4.000000,86.000000,,,,0.000000,4.000000,4.000000,4.000000,4.000000,4.000000,4.000000,4.000000,4.000000,4.000000,4.000000,4.000000,4.000000,4.000000,4.000000,100.000000,,,,,,,,,,,,,,,,
1644854345.763575,9.000000,0.000000,4227.563965,4210.384766,4215.256348,4236.025879,4216.794922,4221.025879,4215.512695,4226.922852,4227.948730,4250.000000,4019.615479,4223.846191,4073.461426,3955.897461,3555.000000,4.000000,86.000000,,,,0.000000,4.000000,4.000000,4.000000,4.000000,4.000000,4.000000,4.000000,4.000000,4.000000,4.000000,4.000000,4.000000,4.000000,4.000000,100.000000,,,,,,,,,,,,,,,,
1644854345.767515,10.000000,0.000000,4213.205078,4199.358887,4214.487305,4238.205078,4208.974121,4218.461426,4216.538574,4225.256348,4226.538574,4250.512695,4016.410156,4225.000000,4069.230713,3911.538574,3551.000000,4.000000,86.000000,,,,0.000000,4.000000,4.000000,4.000000,4.000000,4.000000,4.000000,4.000000,4.000000,4.000000,4.000000,4.000000,4.000000,4.000000,4.000000,100.000000,,,,,,,,,,,,,,,,
1644854345.771455,11.000000,0.000000,4199.615234,4190.000000,4214.102539,4228.205078,4202.692383,4214.102539,4215.128418,4223.974121,4227.051270,4249.487305,4021.666748,4224.615234,4060.512939,3868.205078,2474.000000,4.000000,86.000000,,,,0.000000,4.000000,4.000000,4.000000,4.000000,4.000000,4.000000,4.000000,4.000000,4.000000,4.000000,4.000000,4.000000,4.000000,4.000000,100.000000,,,,,,,,,,,,,,,,
1644854345.775395,12.000000,0.000000,4195.000000,4185.256348,4213.077148,4209.102539,4200.897461,4208.717773,4211.025879,4223.205078,4228.717773,4248.077148,4031.538574,4219.871582,4051.923096,3826.666748,3372.000000,4.000000,86.000000,,,,0.000000,4.000000,4.000000,4.000000,4.000000,4.000000,4.000000,4.000000,4.000000,4.000000,4.000000,4.000000,4.000000,4.000000,4.000000,100.000000,,,,,,,,,,,,,,,,
1644854345.779335,13.000000,0.000000,4198.077148,4181.922852,4210.641113,4192.948730,4202.563965,4203.333496,4206.922852,4221.922852,4228.717773,4245.000000,4035.256348,4210.512695,4046.025635,3786.538574,3489.000000,4.000000,86.000000,,,,0.000000,4.000000,4.000000,4.000000,4.000000,4.000000,4.000000,4.000000,4.000000,4.000000,4.000000,4.000000,4.000000,4.000000,4.000000,100.000000,,,,,,,,,,,,,,,,
1644854345.783275,14.000000,0.000000,4201.922852,4176.794922,4206.922852,4191.794922,4204.230957,4199.615234,4205.897461,4219.743652,4225.256348,4238.333496,4025.384521,4200.128418,4043.461426,3745.897461,3551.000000,4.000000,86.000000,,,,0.000000,4.000000,4.000000,4.000000,4.000000,4.000000,4.000000,4.000000,4.000000,4.000000,4.000000,4.000000,4.000000,4.000000,4.000000,100.000000,,,,,,,,,,,,,,,,
1644854345.787216,15.000000,0.000000,4201.025879,4171.153809,4204.358887,4207.692383,4201.922852,4199.102539,4208.077148,4217.820313,4220.256348,4229.230957,4005.000000,4194.743652,4043.718018,3704.230713,2474.000000,4.000000,86.000000,,,,0.000000,4.000000,4.000000,4.000000,4.000000,4.000000,4.000000,4.000000,4.000000,4.000000,4.000000,4.000000,4.000000,4.000000,4.000000,100.000000,,,,,,,,,,,,,,,,
1644854345.791156,16.000000,0.000000,4196.666504,4169.230957,4205.000000,4231.410156,4195.128418,4202.051270,4211.282227,4217.948730,4217.692383,4222.307617,3987.692383,4198.333496,4045.512939,3663.076904,3372.000000,4.000000,86.000000,,,,0.000000,4.000000,4.000000,4.000000,4.000000,4.000000,4.000000,4.000000,4.000000,4.000000,4.000000,4.000000,4.000000,4.000000,4.000000,100.000000,1.000000,8.333333,1.000000,3.000000,4.000000,0.000000,1.000000,3.000000,4.000000,4.000000,4.000000,3.000000,1.000000,4.000000,1.000000,0.000000
1644854345.795096,17.000000,0.000000,4194.615234,4172.820313,4209.743652,4248.461426,4187.820313,4206.922852,4213.589844,4221.025879,4220.000000,4222.307617,3986.153809,4208.589844,4047.179443,3625.641113,3489.000000,4.000000,86.000000,,,,0.000000,4.000000,4.000000,4.000000,4.000000,4.000000,4.000000,4.000000,4.000000,4.000000,4.000000,4.000000,4.000000,4.000000,4.000000,100.000000,,,,,,,,,,,,,,,,
1644854345.799036,18.000000,0.000000,4198.077148,4179.487305,4215.641113,4248.846191,4184.871582,4211.153809,4215.000000,4225.128418,4225.256348,4229.102539,4002.564209,4217.820313,4047.307617,3593.846191,3551.000000,4.000000,86.000000,,,,0.000000,4.000000,4.000000,4.000000,4.000000,4.000000,4.000000,4.000000,4.000000,4.000000,4.000000,4.000000,4.000000,4.000000,4.000000,100.000000,,,,,,,,,,,,,,,,
1644854345.802976,19.000000,0.000000,4203.974121,4185.256348,4218.333496,4233.717773,4189.230957,4213.077148,4215.897461,4227.051270,4229.102539,4236.922852,4026.666748,4218.846191,4045.641113,3565.384521,2474.000000,4.000000,86.000000,,,,0.000000,4.000000,4.000000,4.000000,4.000000,4.000000,4.000000,4.000000,4.000000,4.000000,4.000000,4.000000,4.000000,4.000000,4.000000,100.000000,,,,,,,,,,,,,,,,
1644854345.806916,20.000000,0.000000,4205.512695,4187.179688,4214.230957,4213.077148,4199.230957,4213.077148,4215.769043,4224.871582,4228.717773,4240.128418,4043.589844,4210.512695,4043.846191,3535.000000,3372.000000,4.000000,86.000000,,,,0.000000,4.000000,4.000000,4.000000,4.000000,4.000000,4.000000,4.000000,4.000000,4.000000,4.000000,4.000000,4.000000,4.000000,4.000000,100.000000,,,,,,,,,,,,,,,,
1644854345.810856,21.000000,0.000000,4199.487305,4185.769043,4205.000000,4198.077148,4209.615234,4213.333496,4213.717773,4219.487305,4225.384766,4236.922852,4044.358887,4198.205078,4043.076904,3498.333252,3489.000000,4.000000,86.000000,,,,0.000000,4.000000,4.000000,4.000000,4.000000,4.000000,4.000000,4.000000,4.000000,4.000000,4.000000,4.000000,4.000000,4.000000,4.000000,100.000000,,,,,,,,,,,,,,,,
1644854345.814796,22.000000,0.000000,4190.769043,4183.461426,4195.897461,4193.461426,4215.769043,4214.743652,4210.769043,4213.717773,4221.922852,4231.025879,4030.641113,4189.358887,4043.205078,3456.923096,3551.000000,4.000000,86.000000,,,,0.000000,4.000000,4.000000,4.000000,4.000000,4.000000,4.000000,4.000000,4.000000,4.000000,4.000000,4.000000,4.000000,4.000000,4.000000,100.000000,,,,,,,,,,,,,,,,
1644854345.818736,23.000000,0.000000,4186.794922,4181.922852,4192.692383,4196.794922,4215.897461,4216.538574,4208.974121,4210.512695,4220.512695,4227.692383,4013.589844,4188.205078,4043.846191,3417.948730,2474.000000,4.000000,86.000000,,,,0.000000,4.000000,4.000000,4.000000,4.000000,4.000000,4.000000,4.000000,4.000000,4.000000,4.000000,4.000000,4.000000,4.000000,4.000000,100.000000,,,,,,,,,,,,,,,,
1644854345.822776,24.000000,0.000000,4190.512695,4181.794922,4196.282227,4203.717773,4212.692383,4216.922852,4210.128418,4210.769043,4221.538574,4229.102539,4006.281982,4193.717773,4046.025635,3388.718018,3372.000000,4.000000,86.000000,,,,0.000000,4.000000,4.000000,4.000000,4.000000,4.000000,4.000000,4.000000,4.000000,4.000000,4.000000,4.000000,4.000000,4.000000,4.000000,100.000000,,,,,,,,,,,,,,,,
1644854345.826716,25.000000,0.000000,4197.051270,4182.307617,4203.077148,4212.948730,4211.025879,4215.897461,4212.820313,4213.589844,4223.974121,4233.333496,4014.358887,4201.025879,4050.769287,3369.743652,3489.000000,4.000000,86.000000,,,,0.000000,4.000000,4.000000,4.000000,4.000000,4.000000,4.000000,4.000000,4.000000,4.000000,4.000000,4.000000,4.000000,4.000000,4.000000,100.000000,,,,,,,,,,,,,,,,
1644854345.830657,26.000000,0.000000,4200.128418,4182.820313,4208.205078,4225.256348,4214.230957,4215.384766,4214.615234,4217.307617,4226.794922,4237.307617,4030.769287,4205.128418,4057.179443,3355.256348,3551.000000,4.000000,86.000000,,,,0.000000,4.000000,4.000000,4.000000,4.000000,4.000000,4.000000,4.000000,4.000000,4.000000,4.000000,4.000000,4.000000,4.000000,4.000000,100.000000,,,,,,,,,,,,,,,,
1644854345.834597,27.000000,0.000000,4199.230957,4184.230957,4208.589844,4238.974121,4221.282227,4216.666504,4214.487305,4221.153809,4229.487305,4239.871582,4042.307617,4204.743652,4061.281982,3339.743652,2474.000000,4.000000,86.000000,,,,0.000000,4.000000,4.000000,4.000000,4.000000,4.000000,4.000000,4.000000,4.000000,4.000000,4.000000,4.000000,4.000000,4.000000,4.000000,100.000000,,,,,,,,,,,,,,,,
1644854345.838537,28.000000,0.000000,4198.974121,4187.436035,4204.743652,4248.717773,4226.538574,4218.974121,4214.230957,4223.974121,4231.282227,4241.282227,4039.615479,4202.179688,4059.358887,3323.846191,3372.000000,4.000000,86.000000,,,,0.000000,4.000000,4.000000,4.000000,4.000000,4.000000,4.000000,4.000000,4.000000,4.000000,4.000000,4.000000,4.000000,4.000000,4.000000,100.000000,,,,,,,,,,,,,,,,
1644854345.842477,29.000000,0.000000,4203.333496,4192.692383,4200.384766,4249.102539,4224.871582,4220.000000,4215.384766,4225.000000,4232.051270,4242.179688,4025.769287,4200.000000,4052.051270,3310.384521,3489.000000,4.000000,86.000000,,,,0.000000,4.000000,4.000000,4.000000,4.000000,4.000000,4.000000,4.000000,4.000000,4.000000,4.000000,4.000000,4.000000,4.000000,4.000000,100.000000,,,,,,,,,,,,,,,,
1644854345.846417,30.000000,0.000000,4210.512695,4198.461426,4198.333496,4239.871582,4216.538574,4218.589844,4217.051270,4223.461426,4231.666504,4242.051270,4011.666748,4199.871582,4045.512939,3296.666748,3551.000000,4.000000,86.000000,,,,0.000000,4.000000,4.000000,4.000000,4.000000,4.000000,4.000000,4.000000,4.000000,4.000000,4.000000,4.000000,4.000000,4.000000,4.000000,100.000000,,,,,,,,,,,,,,,,
1644854345.850357,31.000000,0.000000,4213.717773,4202.948730,4199.487305,4226.410156,4207.692383,4215.256348,4216.794922,4220.000000,4230.512695,4240.641113,4007.820557,4201.666504,4045.897461,3274.358887,2474.000000,4.000000,86.000000,,,,0.000000,4.000000,4.000000,4.000000,4.000000,4.000000,4.000000,4.000000,4.000000,4.000000,4.000000,4.000000,4.000000,4.000000,4.000000,100.000000,,,,,,,,,,,,,,,,
1644854345.854297,32.000000,0.000000,4208.205078,4205.256348,4201.922852,4215.897461,4205.512695,4211.794922,4213.589844,4216.538574,4228.846191,4237.948730,4016.794922,4204.358887,4054.230713,3241.281982,0.000000,4.000000,86.000000,,,,0.000000,4.000000,4.000000,4.000000,4.000000,4.000000,4.000000,4.000000,4.000000,4.000000,4.000000,4.000000,4.000000,4.000000,4.000000,100.000000,,,,,,,,,,,,,,,,
1644854345.858237,33.000000,0.000000,4196.153809,4205.641113,4204.102539,4211.922852,4210.641113,4209.871582,4210.128418,4215.384766,4227.051270,4235.384766,4032.948730,4206.666504,4064.743652,3212.564209,0.000000,4.000000,86.000000,,,,0.000000,4.000000,4.000000,4.000000,4.000000,4.000000,4.000000,4.000000,4.000000,4.000000,4.000000,4.000000,4.000000,4.000000,4.000000,100.000000,,,,,,,,,,,,,,,,
1644854345.862177,34.000000,0.000000,4184.743652,4204.743652,4205.897461,4213.333496,4217.692383,4210.641113,4209.871582,4216.922852,4225.897461,4235.384766,4048.333252,4207.948730,4071.281982,3214.743652,0.000000,4.000000,86.000000,,,,0.000000,4.000000,4.000000,4.000000,4.000000,4.000000,4.000000,4.000000,4.000000,4.000000,4.000000,4.000000,4.000000,4.000000,4.000000,100.000000,,,,,,,,,,,,,,,,
1644854345.866118,35.000000,0.000000,4181.666504,4201.922852,4208.077148,4216.666504,4220.000000,4213.461426,4213.077148,4219.230957,4226.025879,4238.974121,4057.179443,4208.205078,4071.794922,3266.923096,0.000000,4.000000,86.000000,,,,0.000000,4.000000,4.000000,4.000000,4.000000,4.000000,4.000000,4.000000,4.000000,4.000000,4.000000,4.000000,4.000000,4.000000,4.000000,100.000000,,,,,,,,,,,,,,,,
1644854345.870058,36.000000,0.000000,4188.461426,4197.179688,4210.128418,4219.102539,4216.282227,4216.282227,4216.025879,4220.000000,4226.538574,4244.230957,4058.076904,4208.077148,4068.846191,3363.205078,0.000000,4.000000,86.000000,,,,0.000000,4.000000,4.000000,4.000000,4.000000,4.000000,4.000000,4.000000,4.000000,4.000000,4.000000,4.000000,4.000000,4.000000,4.000000,100.000000,,,,,,,,,,,,,,,,
1644854345.873998,37.000000,0.000000,4200.000000,4191.794922,4210.897461,4220.384766,4210.384766,4217.051270,4215.769043,4218.974121,4226.025879,4246.410156,4054.102539,4207.820313,4065.256348,3471.538574,0.000000,4.000000,86.000000,,,,0.000000,4.000000,4.000000,4.000000,4.000000,4.000000,4.000000,4.000000,4.000000,4.000000,4.000000,4.000000,4.000000,4.000000,4.000000,100.000000,,,,,,,,,,,,,,,,
1644854345.877938,38.000000,0.000000,4208.589844,4187.179688,4208.589844,4221.153809,4207.948730,4215.256348,4212.948730,4217.307617,4223.333496,4241.282227,4050.000000,4207.563965,4061.538574,3553.205078,0.000000,4.000000,86.000000,,,,0.000000,4.000000,4.000000,4.000000,4.000000,4.000000,4.000000,4.000000,4.000000,4.000000,4.000000,4.000000,4.000000,4.000000,4.000000,100.000000,,,,,,,,,,,,,,,,
1644854345.881878,39.000000,0.000000,4209.487305,4184.358887,4202.948730,4222.051270,4211.794922,4211.922852,4210.641113,4216.410156,4219.615234,4229.871582,4049.358887,4207.179688,4056.153809,3585.641113,0.000000,4.000000,86.000000,,,,0.000000,4.000000,4.000000,4.000000,4.000000,4.000000,4.000000,4.000000,4.000000,4.000000,4.000000,4.000000,4.000000,4.000000,4.000000,100.000000,,,,,,,,,,,,,,,,
1644854345.885818,40.000000,0.000000,4204.102539,4183.205078,4196.025879,4220.769043,4219.358887,4209.230957,4210.384766,4216.282227,4216.538574,4219.743652,4052.692383,4206.794922,4049.230713,3573.974365,0.000000,4.000000,86.000000,,,,0.000000,4.000000,4.000000,4.000000,4.000000,4.000000,4.000000,4.000000,4.000000,4.000000,4.000000,4.000000,4.000000,4.000000,4.000000,100.000000,,,,,,,,,,,,,,,,
1644854345.889758,41.000000,0.000000,4197.948730,4183.974121,4191.153809,4214.615234,4225.512695,4208.461426,4211.025879,4215.897461,4215.384766,4219.102539,4056.923096,4206.025879,4042.820557,3545.897461,0.000000,4.000000,86.000000,,,,0.000000,4.000000,4.000000,4.000000,4.000000,4.000000,4.000000,4.000000,4.000000,4.000000,4.000000,4.000000,4.000000,4.000000,4.000000,100.000000,,,,,,,,,,,,,,,,
1644854345.893698,42.000000,0.000000,4195.897461,4186.153809,4191.153809,4203.846191,4225.897461,4210.000000,4211.794922,4214.358887,4216.153809,4229.230957,4057.820557,4205.000000,4040.128174,3531.025635,0.000000,4.000000,86.000000,,,,0.000000,4.000000,4.000000,4.000000,4.000000,4.000000,4.000000,4.000000,4.000000,4.000000,4.000000,4.000000,4.000000,4.000000,4.000000,100.000000,,,,,,,,,,,,,,,,
1644854345.897538,43.000000,0.000000,4198.205078,4189.487305,4195.897461,4194.871582,4221.025879,4212.692383,4213.077148,4212.692383,4217.436035,4241.922852,4053.589844,4203.846191,4042.179443,3542.051270,0.000000,4.000000,86.000000,,,,0.000000,4.000000,4.000000,4.000000,4.000000,4.000000,4.000000,4.000000,4.000000,4.000000,4.000000,4.000000,4.000000,4.000000,4.000000,100.000000,,,,,,,,,,,,,,,,
1644854345.901479,44.000000,0.000000,4201.282227,4192.307617,4201.794922,4195.128418,4215.000000,4215.000000,4215.128418,4212.692383,4218.205078,4246.666504,4045.641113,4202.307617,4048.076904,3568.205078,0.000000,4.000000,86.000000,,,,0.000000,4.000000,4.000000,4.000000,4.000000,4.000000,4.000000,4.000000,4.000000,4.000000,4.000000,4.000000,4.000000,4.000000,4.000000,100.000000,,,,,,,,,,,,,,,,
1644854345.905419,45.000000,0.000000,4202.179688,4193.333496,4204.871582,4206.410156,4211.794922,4215.897461,4217.307617,4214.871582,4218.461426,4240.000000,4038.333252,4200.512695,4055.897461,3588.076904,0.000000,4.000000,86.000000,,,,0.000000,4.000000,4.000000,4.000000,4.000000,4.000000,4.000000,4.000000,4.000000,4.000000,4.000000,4.000000,4.000000,4.000000,4.000000,100.000000,,,,,,,,,,,,,,,,
1644854345.909359,46.000000,0.000000,4200.256348,4192.436035,4203.205078,4221.922852,4212.563965,4215.512695,4217.436035,4217.179688,4218.846191,4227.948730,4034.487061,4198.333496,4063.205078,3589.615479,0.000000,4.000000,86.000000,,,,0.000000,4.000000,4.000000,4.000000,4.000000,4.000000,4.000000,4.000000,4.000000,4.000000,4.000000,4.000000,4.000000,4.000000,4.000000,100.000000,,,,,,,,,,,,,,,,
1644854345.913299,47.000000,0.000000,4197.051270,4190.128418,4198.461426,4231.922852,4214.871582,4214.871582,4215.384766,4217.563965,4219.615234,4220.512695,4035.512939,4196.794922,4068.076904,3578.718018,0.000000,4.000000,86.000000,,,,0.000000,4.000000,4.000000,4.000000,4.000000,4.000000,4.000000,4.000000,4.000000,4.000000,4.000000,4.000000,4.000000,4.000000,4.000000,100.000000,,,,,,,,,,,,,,,,
1644854345.917239,48.000000,0.000000,4193.717773,4187.179688,4194.358887,4231.153809,4217.179688,4214.615234,4214.102539,4215.641113,4220.897461,4222.563965,4041.281982,4197.179688,4068.589844,3570.641113,0.000000,4.000000,86.000000,,,,0.000000,4.000000,4.000000,4.000000,4.000000,4.000000,4.000000,4.000000,4.000000,4.000000,4.000000,4.000000,4.000000,4.000000,4.000000,100.000000,,,,,,,,,,,,,,,,
1644854345.921179,49.000000,0.000000,4190.769043,4184.358887,4193.974121,4222.307617,4220.384766,4215.641113,4216.410156,4214.743652,4223.077148,4231.666504,4051.281982,4200.512695,4064.487061,3572.948730,0.000000,4.000000,86.000000,,,,0.000000,4.000000,4.000000,4.000000,4.000000,4.000000,4.000000,4.000000,4.000000,4.000000,4.000000,4.000000,4.000000,4.000000,4.000000,100.000000,,,,,,,,,,,,,,,,
1644854345.925119,50.000000,0.000000,4187.948730,4182.563965,4197.948730,4213.333496,4226.666504,4217.692383,4221.282227,4218.205078,4227.051270,4241.538574,4063.846191,4207.307617,4058.589844,3578.846191,0.000000,4.000000,86.000000,,,,0.000000,4.000000,4.000000,4.000000,4.000000,4.000000,4.000000,4.000000,4.000000,4.000000,4.000000,4.000000,4.000000,4.000000,4.000000,100.000000,,,,,,,,,,,,,,,,
1644854345.929059,51.000000,0.000000,4186.282227,4182.307617,4203.461426,4210.897461,4236.282227,4220.512695,4224.358887,4226.153809,4233.077148,4247.692383,4076.794922,4216.153809,4055.641113,3578.333252,0.000000,4.000000,86.000000,,,,0.000000,4.000000,4.000000,4.000000,4.000000,4.000000,4.000000,4.000000,4.000000,4.000000,4.000000,4.000000,4.000000,4.000000,4.000000,100.000000,,,,,,,,,,,,,,,,
1644854345.932999,52.000000,0.000000,4187.307617,4183.974121,4207.563965,4216.410156,4246.025879,4222.692383,4222.820313,4234.487305,4240.256348,4250.128418,4088.974365,4223.846191,4060.000000,3572.179443,0.000000,4.000000,86.000000,,,,0.000000,4.000000,4.000000,4.000000,4.000000,4.000000,4.000000,4.000000,4.000000,4.000000,4.000000,4.000000,4.000000,4.000000,4.000000,100.000000,,,,,,,,,,,,,,,,
1644854345.936940,53.000000,0.000000,4191.538574,4187.563965,4208.846191,4226.153809,4250.128418,4223.077148,4218.077148,4238.461426,4246.282227,4252.051270,4099.358887,4226.282227,4072.820557,3571.281982,0.000000,4.000000,86.000000,,,,0.000000,4.000000,4.000000,4.000000,4.000000,4.000000,4.000000,4.000000,4.000000,4.000000,4.000000,4.000000,4.000000,4.000000,4.000000,100.000000,,,,,,,,,,,,,,,,
1644854345.940880,54.000000,0.000000,4198.205078,4192.692383,4208.205078,4233.974121,4244.102539,4220.641113,4213.974121,4236.538574,4248.717773,4255.641113,4105.000000,4222.051270,4090.256348,3583.205078,0.000000,4.000000,86.000000,,,,0.000000,4.000000,4.000000,4.000000,4.000000,4.000000,4.000000,4.000000,4.000000,4.000000,4.000000,4.000000,4.000000,4.000000,4.000000,100.000000,,,,,,,,,,,,,,,,
1644854345.944820,55.000000,0.000000,4205.384766,4198.589844,4206.922852,4235.384766,4228.461426,4215.641113,4212.436035,4230.769043,4246.410156,4260.000000,4101.282227,4214.358887,4104.358887,3602.179443,0.000000,4.000000,86.000000,,,,0.000000,4.000000,4.000000,4.000000,4.000000,4.000000,4.000000,4.000000,4.000000,4.000000,4.000000,4.000000,4.000000,4.000000,4.000000,100.000000,,,,,,,,,,,,,,,,
1644854345.948760,56.000000,0.000000,4211.538574,4202.948730,4205.384766,4229.487305,4209.358887,4209.230957,4211.922852,4225.256348,4240.512695,4260.769043,4087.307617,4208.333496,4108.077148,3614.230713,0.000000,4.000000,86.000000,,,,0.000000,4.000000,4.000000,4.000000,4.000000,4.000000,4.000000,4.000000,4.000000,4.000000,4.000000,4.000000,4.000000,4.000000,4.000000,100.000000,,,,,,,,,,,,,,,,
1644854345.952700,57.000000,0.000000,4214.615234,4203.461426,4203.205078,4220.512695,4196.153809,4203.846191,4211.025879,4222.820313,4234.358887,4255.000000,4069.358887,4207.051270,4100.384766,3611.538574,0.000000,4.000000,86.000000,,,,0.000000,4.000000,4.000000,4.000000,4.000000,4.000000,4.000000,4.000000,4.000000,4.000000,4.000000,4.000000,4.000000,4.000000,4.000000,100.000000,,,,,,,,,,,,,,,,
1644854345.956640,58.000000,0.000000,4213.333496,4198.974121,4200.128418,4212.948730,4195.512695,4202.436035,4210.641113,4223.589844,4231.410156,4244.871582,4058.076904,4209.487305,4087.307617,3600.128174,0.000000,4.000000,86.000000,,,,0.000000,4.000000,4.000000,4.000000,4.000000,4.000000,4.000000,4.000000,4.000000,4.000000,4.000000,4.000000,4.000000,4.000000,4.000000,100.000000,,,,,,,,,,,,,,,,
1644854345.960580,59.000000,0.000000,4206.922852,4191.282227,4197.179688,4209.487305,4207.436035,4206.410156,4213.077148,4226.282227,4233.077148,4236.153809,4060.128174,4212.051270,4078.076904,3592.948730,0.000000,4.000000,86.000000,,,,0.000000,4.000000,4.000000,4.000000,4.000000,4.000000,4.000000,4.000000,4.000000,4.000000,4.000000,4.000000,4.000000,4.000000,4.000000,100.000000,,,,,,,,,,,,,,,,
1644854345.964620,60.000000,0.000000,4196.922852,4184.615234,4196.025879,4209.358887,4224.871582,4214.487305,4218.589844,4229.615234,4237.820313,4234.615234,4072.948730,4213.077148,4077.435791,3597.179443,0.000000,4.000000,86.000000,,,,0.000000,4.000000,4.000000,4.000000,4.000000,4.000000,4.000000,4.000000,4.000000,4.000000,4.000000,4.000000,4.000000,4.000000,4.000000,100.000000,,,,,,,,,,,,,,,,
1644854345.968560,61.000000,0.000000,4187.307617,4181.794922,4198.333496,4211.153809,4238.333496,4223.205078,4223.846191,4232.307617,4242.563965,4240.641113,4086.923096,4214.102539,4082.820557,3608.589844,0.000000,4.000000,86.000000,,,,0.000000,4.000000,4.000000,4.000000,4.000000,4.000000,4.000000,4.000000,4.000000,4.000000,4.000000,4.000000,4.000000,4.000000,4.000000,100.000000,,,,,,,,,,,,,,,,
1644854345.972500,62.000000,0.000000,4183.333496,4182.820313,4203.717773,4213.333496,4243.333496,4228.846191,4225.256348,4233.589844,4245.000000,4249.615234,4093.461426,4217.948730,4086.923096,3617.307617,0.000000,4.000000,86.000000,,,,0.000000,4.000000,4.000000,4.000000,4.000000,4.000000,4.000000,4.000000,4.000000,4.000000,4.000000,4.000000,4.000000,4.000000,4.000000,100.000000,,,,,,,,,,,,,,,,
1644854345.976440,63.000000,0.000000,4187.692383,4185.000000,4209.871582,4215.512695,4241.282227,4229.615234,4223.077148,4232.820313,4243.974121,4256.025879,4090.897461,4225.512695,4084.615479,3617.307617,0.000000,4.000000,86.000000,,,,0.000000,4.000000,4.000000,4.000000,4.000000,4.000000,4.000000,4.000000,4.000000,4.000000,4.000000,4.000000,4.000000,4.000000,4.000000,100.000000,,,,,,,,,,,,,,,,
1644854345.980381,64.000000,0.000000,4198.846191,4185.769043,4213.205078,4217.948730,4237.179688,4226.282227,4220.641113,4229.871582,4239.358887,4256.922852,4085.000000,4233.589844,4076.666748,3611.410156,0.000000,4.000000,86.000000,,,,0.000000,4.000000,4.000000,4.000000,4.000000,4.000000,4.000000,4.000000,4.000000,4.000000,4.000000,4.000000,4.000000,4.000000,4.000000,100.000000,,,,,,,,,,,,,,,,
1644854345.984321,65.000000,0.000000,4211.538574,4184.615234,4211.922852,4222.307617,4235.769043,4221.538574,4220.256348,4226.025879,4232.563965,4253.461426,4083.589844,4236.282227,4069.487061,3607.564209,0.000000,4.000000,86.000000,,,,0.000000,4.000000,4.000000,4.000000,4.000000,4.000000,4.000000,4.000000,4.000000,4.000000,4.000000,4.000000,4.000000,4.000000,4.000000,100.000000,,,,,,,,,,,,,,,,
1644854345.988261,66.000000,0.000000,4220.000000,4183.846191,4206.922852,4230.384766,4238.461426,4218.077148,4221.666504,4222.307617,4226.410156,4249.102539,4088.846191,4230.384766,4069.871826,3611.281982,0.000000,4.000000,86.000000,,,,0.000000,4.000000,4.000000,4.000000,4.000000,4.000000,4.000000,4.000000,4.000000,4.000000,4.000000,4.000000,4.000000,4.000000,4.000000,100.000000,,,,,,,,,,,,,,,,
1644854345.992201,67.000000,0.000000,4219.871582,4185.769043,4201.282227,4241.538574,4241.794922,4216.666504,4222.563965,4220.000000,4223.461426,4246.025879,4096.153809,4217.307617,4078.846191,3621.025635,0.000000,4.000000,86.000000,,,,0.000000,4.000000,4.000000,4.000000,4.000000,4.000000,4.000000,4.000000,4.000000,4.000000,4.000000,4.000000,4.000000,4.000000,4.000000,100.000000,,,,,,,,,,,,,,,,
1644854345.996141,68.000000,0.000000,4210.641113,4190.897461,4198.333496,4251.282227,4239.871582,4216.666504,4222.307617,4219.230957,4224.230957,4244.230957,4098.589844,4203.589844,4090.897461,3630.256348,0.000000,4.000000,86.000000,,,,0.000000,4.000000,4.000000,4.000000,4.000000,4.000000,4.000000,4.000000,4.000000,4.000000,4.000000,4.000000,4.000000,4.000000,4.000000,100.000000,,,,,,,,,,,,,,,,
1644854346.000081,69.000000,0.000000,4195.641113,4196.153809,4199.871582,4252.436035,4229.615234,4216.922852,4222.179688,4220.128418,4226.666504,4241.153809,4093.589844,4195.512695,4097.179688,3633.333252,0.000000,4.000000,86.000000,,,,0.000000,4.000000,4.000000,4.000000,4.000000,4.000000,4.000000,4.000000,4.000000,4.000000,4.000000,4.000000,4.000000,4.000000,4.000000,100.000000,,,,,,,,,,,,,,,,
1644854346.004021,70.000000,0.000000,4181.538574,4197.820313,4204.102539,4241.410156,4215.769043,4216.922852,4222.692383,4221.794922,4227.948730,4235.384766,4085.897461,4195.769043,4092.179443,3628.846191,0.000000,4.000000,86.000000,,,,0.000000,4.000000,4.000000,4.000000,4.000000,4.000000,4.000000,4.000000,4.000000,4.000000,4.000000,4.000000,4.000000,4.000000,4.000000,100.000000,,,,,,,,,,,,,,,,
1644854346.007961,71.000000,0.000000,4175.384766,4194.615234,4207.307617,4221.794922,4207.948730,4216.666504,4222.692383,4222.436035,4227.051270,4228.461426,4082.692383,4201.153809,4078.461426,3621.153809,0.000000,4.000000,86.000000,,,,0.000000,4.000000,4.000000,4.000000,4.000000,4.000000,4.000000,4.000000,4.000000,4.000000,4.000000,4.000000,4.000000,4.000000,4.000000,100.000000,,,,,,,,,,,,,,,,
1644854346.011901,72.000000,0.000000,4180.000000,4189.358887,4206.922852,4202.820313,4212.820313,4216.666504,4220.897461,4221.538574,4224.871582,4223.974121,4086.153809,4205.641113,4064.615479,3616.153809,0.000000,4.000000,86.000000,,,,0.000000,4.000000,4.000000,4.000000,4.000000,4.000000,4.000000,4.000000,4.000000,4.000000,4.000000,4.000000,4.000000,4.000000,4.000000,100.000000,,,,,,,,,,,,,,,,
1644854346.015842,73.000000,0.000000,4191.538574,4186.025879,4203.846191,4193.461426,4226.794922,4217.051270,4218.589844,4220.128418,4223.461426,4224.871582,4090.256348,4204.743652,4058.846191,3616.923096,0.000000,4.000000,86.000000,,,,0.000000,4.000000,4.000000,4.000000,4.000000,4.000000,4.000000,4.000000,4.000000,4.000000,4.000000,4.000000,4.000000,4.000000,4.000000,100.000000,,,,,,,,,,,,,,,,
1644854346.019782,74.000000,0.000000,4202.307617,4186.282227,4201.538574,4196.282227,4238.974121,4217.307617,4218.333496,4220.256348,4223.589844,4230.128418,4087.307617,4199.487305,4062.435791,3620.384521,0.000000,4.000000,86.000000,,,,0.000000,4.000000,4.000000,4.000000,4.000000,4.000000,4.000000,4.000000,4.000000,4.000000,4.000000,4.000000,4.000000,4.000000,4.000000,100.000000,,,,,,,,,,,,,,,,
1644854346.023722,75.000000,0.000000,4206.025879,4189.102539,4201.666504,4206.666504,4240.512695,4217.179688,4220.897461,4222.307617,4225.000000,4236.025879,4076.281982,4194.871582,4070.128174,3619.743652,0.000000,4.000000,86.000000,,,,0.000000,4.000000,4.000000,4.000000,4.000000,4.000000,4.000000,4.000000,4.000000,4.000000,4.000000,4.000000,4.000000,4.000000,4.000000,100.000000,,,,,,,,,,,,,,,,
1644854346.027662,76.000000,0.000000,4202.436035,4192.179688,4203.077148,4216.794922,4233.846191,4217.051270,4223.717773,4224.743652,4226.666504,4237.563965,4065.897461,4195.128418,4075.512939,3611.923096,0.000000,4.000000,86.000000,,,,0.000000,4.000000,4.000000,4.000000,4.000000,4.000000,4.000000,4.000000,4.000000,4.000000,4.000000,4.000000,4.000000,4.000000,4.000000,100.000000,,,,,,,,,,,,,,,,
1644854346.031602,77.000000,0.000000,4195.512695,4194.487305,4202.563965,4221.666504,4228.077148,4217.563965,4223.717773,4225.769043,4228.461426,4232.820313,4066.025635,4200.256348,4075.641113,3602.051270,0.000000,4.000000,86.000000,,,,0.000000,4.000000,4.000000,4.000000,4.000000,4.000000,4.000000,4.000000,4.000000,4.000000,4.000000,4.000000,4.000000,4.000000,4.000000,100.000000,,,,,,,,,,,,,,,,
1644854346.035542,78.000000,0.000000,4188.717773,4195.769043,4199.102539,4221.794922,4230.256348,4218.589844,4220.512695,4224.743652,4229.871582,4224.487305,4077.051270,4205.897461,4071.666748,3599.743652,0.000000,4.000000,86.000000,,,,0.000000,4.000000,4.000000,4.000000,4.000000,4.000000,4.000000,4.000000,4.000000,4.000000,4.000000,4.000000,4.000000,4.000000,4.000000,100.000000,,,,,,,,,,,,,,,,
1644854346.039382,79.000000,0.000000,4182.948730,4195.897461,4194.871582,4219.358887,4238.205078,4218.589844,4216.666504,4222.307617,4230.128418,4217.179688,4088.718018,4207.307617,4067.051270,3610.897461,0.000000,4.000000,86.000000,,,,0.000000,4.000000,4.000000,4.000000,4.000000,4.000000,4.000000,4.000000,4.000000,4.000000,4.000000,4.000000,4.000000,4.000000,4.000000,100.000000,,,,,,,,,,,,,,,,
1644854346.043322,80.000000,0.000000,4178.333496,4195.000000,4192.948730,4216.025879,4243.717773,4215.897461,4214.871582,4219.615234,4228.974121,4215.256348,4091.666748,4202.692383,4064.487061,3631.410156,0.000000,4.000000,86.000000,,,,0.000000,4.000000,4.000000,4.000000,4.000000,4.000000,4.000000,4.000000,4.000000,4.000000,4.000000,4.000000,4.000000,4.000000,4.000000,100.000000,,,,,,,,,,,,,,,,
1644854346.047262,81.000000,0.000000,4176.153809,4193.461426,4194.871582,4211.666504,4241.153809,4211.538574,4214.487305,4218.077148,4227.436035,4220.128418,4086.666748,4194.743652,4066.153809,3650.512939,0.000000,4.000000,86.000000,,,,0.000000,4.000000,4.000000,4.000000,4.000000,4.000000,4.000000,4.000000,4.000000,4.000000,4.000000,4.000000,4.000000,4.000000,4.000000,100.000000,,,,,,,,,,,,,,,,
1644854346.051203,82.000000,0.000000,4179.743652,4192.692383,4198.589844,4205.897461,4231.538574,4208.589844,4214.615234,4218.717773,4227.051270,4230.000000,4084.743652,4188.589844,4073.205078,3659.743652,0.000000,4.000000,86.000000,,,,0.000000,4.000000,4.000000,4.000000,4.000000,4.000000,4.000000,4.000000,4.000000,4.000000,4.000000,4.000000,4.000000,4.000000,4.000000,100.000000,,,,,,,,,,,,,,,,
1644854346.055143,83.000000,0.000000,4190.897461,4193.205078,4201.410156,4200.512695,4221.922852,4209.615234,4215.000000,4221.922852,4227.948730,4240.000000,4094.230713,4188.461426,4084.871826,3658.846191,0.000000,4.000000,86.000000,,,,0.000000,4.000000,4.000000,4.000000,4.000000,4.000000,4.000000,4.000000,4.000000,4.000000,4.000000,4.000000,4.000000,4.000000,4.000000,100.000000,,,,,,,,,,,,,,,,
1644854346.059083,84.000000,0.000000,4207.051270,4194.230957,4202.307617,4199.102539,4219.615234,4214.743652,4217.563965,4226.794922,4229.871582,4245.641113,4111.410156,4195.000000,4097.563965,3654.230713,0.000000,4.000000,86.000000,,,,0.000000,4.000000,4.000000,4.000000,4.000000,4.000000,4.000000,4.000000,4.000000,4.000000,4.000000,4.000000,4.000000,4.000000,4.000000,100.000000,,,,,,,,,,,,,,,,
1644854346.063023,85.000000,0.000000,4221.922852,4195.000000,4203.205078,4205.128418,4226.794922,4221.025879,4222.307617,4231.794922,4232.820313,4246.153809,4123.205078,4205.384766,4106.410156,3652.179443,0.000000,4.000000,86.000000,,,,0.000000,4.000000,4.000000,4.000000,4.000000,4.000000,4.000000,4.000000,4.000000,4.000000,4.000000,4.000000,4.000000,4.000000,4.000000,100.000000,,,,,,,,,,,,,,,,
1644854346.066963,86.000000,0.000000,4229.230957,4195.256348,4206.282227,4217.436035,4239.358887,4225.384766,4226.538574,4235.384766,4236.538574,4244.743652,4118.846191,4215.256348,4107.563965,3653.846191,0.000000,4.000000,86.000000,,,,0.000000,4.000000,4.000000,4.000000,4.000000,4.000000,4.000000,4.000000,4.000000,4.000000,4.000000,4.000000,4.000000,4.000000,4.000000,100.000000,,,,,,,,,,,,,,,,
1644854346.070903,87.000000,0.000000,4226.410156,4195.384766,4210.897461,4230.000000,4248.589844,4226.282227,4226.666504,4236.538574,4240.000000,4244.487305,4100.512695,4220.641113,4099.871582,3656.410156,0.000000,4.000000,86.000000,,,,0.000000,4.000000,4.000000,4.000000,4.000000,4.000000,4.000000,4.000000,4.000000,4.000000,4.000000,4.000000,4.000000,4.000000,4.000000,100.000000,,,,,,,,,,,,,,,,
1644854346.074843,88.000000,0.000000,4216.538574,4196.025879,4214.358887,4236.410156,4248.077148,4223.589844,4222.692383,4234.487305,4240.641113,4245.897461,4082.435791,4220.512695,4086.666748,3656.666748,0.000000,4.000000,86.000000,,,,0.000000,4.000000,4.000000,4.000000,4.000000,4.000000,4.000000,4.000000,4.000000,4.000000,4.000000,4.000000,4.000000,4.000000,4.000000,100.000000,,,,,,,,,,,,,,,,
1644854346.078783,89.000000,0.000000,4206.922852,4197.051270,4213.717773,4234.102539,4238.077148,4218.717773,4218.077148,4230.384766,4236.922852,4246.153809,4078.333252,4215.256348,4073.589844,3655.384521,0.000000,4.000000,86.000000,,,,0.000000,4.000000,4.000000,4.000000,4.000000,4.000000,4.000000,4.000000,4.000000,4.000000,4.000000,4.000000,4.000000,4.000000,4.000000,100.000000,,,,,,,,,,,,,,,,
1644854346.082723,90.000000,0.000000,4204.230957,4198.461426,4209.615234,4226.666504,4225.512695,4213.589844,4216.282227,4225.897461,4230.641113,4243.205078,4089.743652,4207.692383,4067.692383,3655.256348,0.000000,4.000000,86.000000,,,,0.000000,4.000000,4.000000,4.000000,4.000000,4.000000,4.000000,4.000000,4.000000,4.000000,4.000000,4.000000,4.000000,4.000000,4.000000,100.000000,,,,,,,,,,,,,,,,
1644854346.086664,91.000000,0.000000,4209.230957,4200.128418,4205.000000,4219.743652,4218.974121,4210.769043,4217.436035,4223.205078,4226.282227,4237.692383,4105.897461,4201.538574,4072.820557,3657.692383,0.000000,4.000000,86.000000,,,,0.000000,4.000000,4.000000,4.000000,4.000000,4.000000,4.000000,4.000000,4.000000,4.000000,4.000000,4.000000,4.000000,4.000000,4.000000,100.000000,,,,,,,,,,,,,,,,
1644854346.090604,92.000000,0.000000,4216.410156,4201.666504,4203.461426,4217.820313,4222.563965,4212.436035,4219.487305,4223.461426,4227.436035,4232.692383,4114.487305,4200.128418,4087.564209,3662.051270,0.000000,4.000000,86.000000,,,,0.000000,4.000000,4.000000,4.000000,4.000000,4.000000,4.000000,4.000000,4.000000,4.000000,4.000000,4.000000,4.000000,4.000000,4.000000,100.000000,,,,,,,,,,,,,,,,
1644854346.094544,93.000000,0.000000,4218.717773,4202.307617,4206.025879,4220.641113,4232.563965,4217.948730,4221.282227,4226.025879,4233.589844,4231.410156,4112.436035,4203.717773,4104.743652,3667.692383,0.000000,4.000000,86.000000,,,,0.000000,4.000000,4.000000,4.000000,4.000000,4.000000,4.000000,4.000000,4.000000,4.000000,4.000000,4.000000,4.000000,4.000000,4.000000,100.000000,,,,,,,,,,,,,,,,
1644854346.098484,94.000000,0.000000,4212.820313,4202.179688,4210.897461,4224.615234,4241.538574,4224.230957,4222.692383,4229.102539,4239.615234,4234.743652,4106.794922,4209.102539,4116.922852,3674.743652,0.000000,4.000000,86.000000,,,,0.000000,4.000000,4.000000,4.000000,4.000000,4.000000,4.000000,4.000000,4.000000,4.000000,4.000000,4.000000,4.000000,4.000000,4.000000,100.000000,,,,,,,,,,,,,,,,
1644854346.102424,95.000000,0.000000,4201.282227,4202.051270,4215.128418,4225.641113,4243.974121,4227.436035,4223.846191,4230.384766,4240.897461,4240.256348,4106.025879,4212.692383,4120.000000,3682.307617,0.000000,4.000000,86.000000,,,,0.000000,4.000000,4.000000,4.000000,4.000000,4.000000,4.000000,4.000000,4.000000,4.000000,4.000000,4.000000,4.000000,4.000000,4.000000,100.000000,,,,,,,,,,,,,,,,
1644854346.106364,96.000000,0.000000,4189.230957,4201.666504,4216.153809,4221.794922,4239.615234,4225.769043,4223.333496,4229.102539,4236.282227,4243.077148,4110.769043,4212.820313,4114.615234,3686.666748,0.000000,4.000000,86.000000,,,,0.000000,4.000000,4.000000,4.000000,4.000000,4.000000,4.000000,4.000000,4.000000,4.000000,4.000000,4.000000,4.000000,4.000000,4.000000,100.000000,,,,,,,,,,,,,,,,
1644854346.110404,97.000000,0.000000,4181.282227,4199.615234,4213.461426,4214.230957,4232.307617,4221.282227,4220.128418,4225.769043,4229.230957,4239.487305,4113.717773,4210.512695,4103.205078,3683.205078,0.000000,4.000000,86.000000,,,,0.000000,4.000000,4.000000,4.000000,4.000000,4.000000,4.000000,4.000000,4.000000,4.000000,4.000000,4.000000,4.000000,4.000000,4.000000,100.000000,,,,,,,,,,,,,,,,
1644854346.114344,98.000000,0.000000,4178.974121,4193.846191,4208.974121,4205.128418,4226.794922,4217.563965,4215.769043,4222.436035,4224.487305,4229.871582,4107.948730,4207.948730,4088.461426,3672.435791,0.000000,4.000000,86.000000,,,,0.000000,4.000000,4.000000,4.000000,4.000000,4.000000,4.000000,4.000000,4.000000,4.000000,4.000000,4.000000,4.000000,4.000000,4.000000,100.000000,,,,,,,,,,,,,,,,
1644854346.118284,99.000000,0.000000,4182.820313,4186.410156,4205.769043,4198.717773,4225.897461,4217.563965,4214.358887,4221.410156,4224.487305,4220.128418,4095.000000,4206.538574,4074.358887,3661.153809,0.000000,4.000000,86.000000,,,,0.000000,4.000000,4.000000,4.000000,4.000000,4.000000,4.000000,4.000000,4.000000,4.000000,4.000000,4.000000,4.000000,4.000000,4.000000,100.000000,,,,,,,,,,,,,,,,
1644854346.122224,100.000000,0.000000,4192.948730,4182.820313,4205.256348,4199.743652,4230.897461,4221.538574,4217.692383,4223.589844,4228.717773,4218.077148,4084.871826,4206.794922,4067.179443,3658.076904,0.000000,4.000000,86.000000,,,,0.000000,4.000000,4.000000,4.000000,4.000000,4.000000,4.000000,4.000000,4.000000,4.000000,4.000000,4.000000,4.000000,4.000000,4.000000,100.000000,,,,,,,,,,,,,,,,
1644854346.126164,101.000000,0.000000,4208.333496,4188.846191,4206.153809,4209.743652,4241.025879,4227.179688,4223.461426,4227.307617,4234.102539,4227.436035,4088.974365,4207.307617,4072.564209,3667.435791,0.000000,4.000000,86.000000,,,,0.000000,4.000000,4.000000,4.000000,4.000000,4.000000,4.000000,4.000000,4.000000,4.000000,4.000000,4.000000,4.000000,4.000000,4.000000,100.000000,,,,,,,,,,,,,,,,
1644854346.130105,102.000000,0.000000,4224.743652,4204.358887,4206.282227,4223.717773,4252.436035,4230.769043,4226.538574,4229.615234,4237.436035,4244.743652,4108.846191,4206.282227,4089.487061,3685.384521,0.000000,4.000000,86.000000,,,,0.000000,4.000000,4.000000,4.000000,4.000000,4.000000,4.000000,4.000000,4.000000,4.000000,4.000000,4.000000,4.000000,4.000000,4.000000,100.000000,,,,,,,,,,,,,,,,
1644854346.134045,103.000000,0.000000,4235.384766,4221.410156,4204.487305,4232.948730,4259.615234,4229.230957,4224.358887,4228.205078,4236.538574,4259.615234,4132.948730,4203.077148,4108.974121,3702.820557,0.000000,4.000000,86.000000,,,,0.000000,4.000000,4.000000,4.000000,4.000000,4.000000,4.000000,4.000000,4.000000,4.000000,4.000000,4.000000,4.000000,4.000000,4.000000,100.000000,,,,,,,,,,,,,,,,
1644854346.137985,104.000000,0.000000,4234.230957,4229.230957,4202.051270,4231.794922,4258.077148,4222.820313,4219.230957,4223.846191,4231.025879,4261.922852,4144.487305,4198.589844,4118.717773,3710.769287,0.000000,4.000000,86.000000,,,,0.000000,4.000000,4.000000,4.000000,4.000000,4.000000,4.000000,4.000000,4.000000,4.000000,4.000000,4.000000,4.000000,4.000000,4.000000,100.000000,,,,,,,,,,,,,,,,
1644854346.141925,105.000000,0.000000,4220.128418,4222.820313,4200.769043,4222.820313,4248.205078,4215.384766,4215.384766,4219.102539,4223.333496,4250.256348,4135.256348,4195.512695,4112.820313,3705.256348,0.000000,4.000000,86.000000,,,,0.000000,4.000000,4.000000,4.000000,4.000000,4.000000,4.000000,4.000000,4.000000,4.000000,4.000000,4.000000,4.000000,4.000000,4.000000,100.000000,,,,,,,,,,,,,,,,
1644854346.145865,106.000000,0.000000,4199.358887,4206.538574,4200.897461,4213.077148,4235.128418,4211.666504,4214.358887,4216.153809,4217.436035,4232.948730,4113.333496,4195.512695,4096.153809,3690.000000,0.000000,4.000000,86.000000,,,,0.000000,4.000000,4.000000,4.000000,4.000000,4.000000,4.000000,4.000000,4.000000,4.000000,4.000000,4.000000,4.000000,4.000000,4.000000,100.000000,,,,,,,,,,,,,,,,
1644854346.149805,107.000000,0.000000,4182.820313,4190.897461,4201.282227,4208.077148,4226.666504,4213.589844,4214.743652,4215.384766,4216.410156,4222.307617,4096.025879,4198.205078,4081.153809,3674.615479,0.000000,4.000000,86.000000,,,,0.000000,4.000000,4.000000,4.000000,4.000000,4.000000,4.000000,4.000000,4.000000,4.000000,4.000000,4.000000,4.000000,4.000000,4.000000,100.000000,,,,,,,,,,,,,,,,
1644854346.153745,108.000000,0.000000,4178.846191,4183.974121,4200.384766,4209.358887,4227.692383,4219.230957,4215.256348,4216.282227,4220.256348,4224.871582,4095.000000,4200.641113,4078.076904,3669.230713,0.000000,4.000000,86.000000,,,,0.000000,4.000000,4.000000,4.000000,4.000000,4.000000,4.000000,4.000000,4.000000,4.000000,4.000000,4.000000,4.000000,4.000000,4.000000,100.000000,,,,,,,,,,,,,,,,
1644854346.157685,109.000000,0.000000,4187.436035,4186.922852,4198.974121,4214.487305,4236.410156,4224.871582,4216.666504,4217.820313,4226.025879,4236.922852,4107.179688,4199.743652,4088.333252,3678.076904,0.000000,4.000000,86.000000,,,,0.000000,4.000000,4.000000,4.000000,4.000000,4.000000,4.000000,4.000000,4.000000,4.000000,4.000000,4.000000,4.000000,4.000000,4.000000,100.000000,,,,,,,,,,,,,,,,
1644854346.161625,110.000000,0.000000,4200.897461,4194.615234,4199.102539,4218.974121,4245.897461,4227.692383,4220.128418,4219.487305,4229.743652,4248.333496,4119.487305,4195.128418,4103.717773,3695.769287,0.000000,4.000000,86.000000,,,,0.000000,4.000000,4.000000,4.000000,4.000000,4.000000,4.000000,4.000000,4.000000,4.000000,4.000000,4.000000,4.000000,4.000000,4.000000,100.000000,,,,,,,,,,,,,,,,
1644854346.165566,111.000000,0.000000,4210.128418,4201.410156,4202.307617,4218.077148,4249.230957,4227.820313,4223.846191,4220.641113,4229.871582,4250.897461,4121.666504,4190.256348,4113.461426,3711.410156,0.000000,4.000000,86.000000,,,,0.000000,4.000000,4.000000,4.000000,4.000000,4.000000,4.000000,4.000000,4.000000,4.000000,4.000000,4.000000,4.000000,4.000000,4.000000,100.000000,,,,,,,,,,,,,,,,
1644854346.169506,112.000000,0.000000,4212.051270,4205.384766,4207.692383,4210.512695,4244.871582,4226.922852,4224.615234,4220.384766,4227.436035,4245.256348,4113.205078,4188.589844,4111.794922,3716.025635,0.000000,4.000000,86.000000,,,,0.000000,4.000000,4.000000,4.000000,4.000000,4.000000,4.000000,4.000000,4.000000,4.000000,4.000000,4.000000,4.000000,4.000000,4.000000,100.000000,,,,,,,,,,,,,,,,
1644854346.173446,113.000000,0.000000,4209.743652,4208.461426,4212.436035,4198.974121,4238.333496,4226.538574,4221.282227,4218.974121,4225.128418,4237.948730,4102.563965,4191.794922,4101.794922,3710.256348,0.000000,4.000000,86.000000,,,,0.000000,4.000000,4.000000,4.000000,4.000000,4.000000,4.000000,4.000000,4.000000,4.000000,4.000000,4.000000,4.000000,4.000000,4.000000,100.000000,,,,,,,,,,,,,,,,
1644854346.177386,114.000000,0.000000,4207.948730,4212.179688,4213.589844,4188.461426,4236.025879,4226.922852,4216.282227,4217.563965,4224.487305,4234.743652,4098.077148,4197.692383,4091.538574,3701.794922,0.000000,4.000000,86.000000,,,,0.000000,4.000000,4.000000,4.000000,4.000000,4.000000,4.000000,4.000000,4.000000,4.000000,4.000000,4.000000,4.000000,4.000000,4.000000,100.000000,,,,,,,,,,,,,,,,
1644854346.181326,115.000000,0.000000,4208.205078,4214.871582,4210.897461,4184.487305,4240.769043,4227.051270,4213.461426,4217.307617,4225.128418,4235.769043,4102.820313,4202.948730,4088.076904,3697.948730,0.000000,4.000000,86.000000,,,,0.000000,4.000000,4.000000,4.000000,4.000000,4.000000,4.000000,4.000000,4.000000,4.000000,4.000000,4.000000,4.000000,4.000000,4.000000,100.000000,,,,,,,,,,,,,,,,
1644854346.185166,116.000000,0.000000,4209.102539,4214.358887,4206.794922,4190.384766,4250.000000,4226.538574,4213.974121,4217.820313,4225.897461,4237.820313,4114.102539,4204.871582,4092.948730,3700.128174,0.000000,4.000000,86.000000,,,,0.000000,4.000000,4.000000,4.000000,4.000000,4.000000,4.000000,4.000000,4.000000,4.000000,4.000000,4.000000,4.000000,4.000000,4.000000,100.000000,,,,,,,,,,,,,,,,
1644854346.189106,117.000000,0.000000,4209.487305,4211.025879,4204.615234,4204.487305,4258.974121,4225.769043,4215.512695,4218.333496,4226.025879,4239.358887,4127.436035,4203.589844,4102.820313,3705.897461,0.000000,4.000000,86.000000,,,,0.000000,4.000000,4.000000,4.000000,4.000000,4.000000,4.000000,4.000000,4.000000,4.000000,4.000000,4.000000,4.000000,4.000000,4.000000,100.000000,,,,,,,,,,,,,,,,
1644854346.193046,118.000000,0.000000,4209.487305,4207.563965,4206.538574,4220.000000,4264.358887,4225.897461,4216.025879,4218.974121,4226.410156,4241.025879,4138.205078,4201.025879,4111.794922,3713.333252,0.000000,4.000000,86.000000,,,,0.000000,4.000000,4.000000,4.000000,4.000000,4.000000,4.000000,4.000000,4.000000,4.000000,4.000000,4.000000,4.000000,4.000000,4.000000,100.000000,,,,,,,,,,,,,,,,
1644854346.196986,119.000000,0.000000,4208.461426,4206.282227,4211.666504,4228.333496,4264.743652,4227.563965,4216.153809,4220.256348,4227.563965,4243.205078,4141.538574,4200.512695,4114.743652,3721.281982,0.000000,4.000000,86.000000,,,,0.000000,4.000000,4.000000,4.000000,4.000000,4.000000,4.000000,4.000000,4.000000,4.000000,4.000000,4.000000,4.000000,4.000000,4.000000,100.000000,,,,,,,,,,,,,,,,
1644854346.200927,120.000000,0.000000,4204.615234,4206.410156,4215.641113,4224.230957,4259.743652,4230.512695,4217.051270,4221.794922,4228.333496,4243.461426,4134.871582,4203.077148,4108.333496,3727.564209,0.000000,4.000000,86.000000,,,,0.000000,4.000000,4.000000,4.000000,4.000000,4.000000,4.000000,4.000000,4.000000,4.000000,4.000000,4.000000,4.000000,4.000000,4.000000,100.000000,,,,,,,,,,,,,,,,
1644854346.204867,121.000000,0.000000,4195.769043,4204.743652,4214.487305,4208.974121,4250.000000,4232.948730,4218.205078,4221.666504,4227.179688,4238.461426,4119.871582,4206.666504,4093.589844,3728.718018,0.000000,4.000000,86.000000,,,,0.000000,4.000000,4.000000,4.000000,4.000000,4.000000,4.000000,4.000000,4.000000,4.000000,4.000000,4.000000,4.000000,4.000000,4.000000,100.000000,,,,,,,,,,,,,,,,
1644854346.208807,122.000000,0.000000,4183.717773,4199.871582,4208.333496,4192.051270,4238.077148,4233.589844,4217.692383,4218.974121,4223.589844,4228.589844,4103.077148,4207.820313,4076.666748,3723.974365,0.000000,4.000000,86.000000,,,,0.000000,4.000000,4.000000,4.000000,4.000000,4.000000,4.000000,4.000000,4.000000,4.000000,4.000000,4.000000,4.000000,4.000000,4.000000,100.000000,,,,,,,,,,,,,,,,
1644854346.212747,123.000000,0.000000,4175.000000,4194.871582,4201.153809,4184.487305,4229.230957,4232.436035,4215.000000,4215.256348,4219.487305,4219.743652,4093.333252,4205.000000,4066.923096,3718.076904,0.000000,4.000000,86.000000,,,,0.000000,4.000000,4.000000,4.000000,4.000000,4.000000,4.000000,4.000000,4.000000,4.000000,4.000000,4.000000,4.000000,4.000000,4.000000,100.000000,,,,,,,,,,,,,,,,
1644854346.216687,124.000000,0.000000,4178.077148,4194.615234,4197.436035,4190.897461,4228.333496,4230.897461,4213.333496,4213.589844,4218.461426,4218.461426,4095.641113,4199.871582,4071.281982,3718.461426,0.000000,4.000000,86.000000,,,,0.000000,4.000000,4.000000,4.000000,4.000000,4.000000,4.000000,4.000000,4.000000,4.000000,4.000000,4.000000,4.000000,4.000000,4.000000,100.000000,,,,,,,,,,,,,,,,
1644854346.220627,125.000000,0.000000,4195.128418,4201.410156,4199.102539,4205.256348,4237.307617,4230.897461,4215.384766,4215.769043,4222.307617,4226.025879,4108.205078,4195.897461,4089.358887,3727.820557,0.000000,4.000000,86.000000,,,,0.000000,4.000000,4.000000,4.000000,4.000000,4.000000,4.000000,4.000000,4.000000,4.000000,4.000000,4.000000,4.000000,4.000000,4.000000,100.000000,,,,,,,,,,,,,,,,
1644854346.224567,126.000000,0.000000,4219.358887,4212.179688,4203.589844,4215.128418,4252.692383,4232.692383,4220.897461,4220.897461,4228.717773,4237.436035,4123.717773,4195.512695,4112.436035,3741.794922,0.000000,4.000000,86.000000,,,,0.000000,4.000000,4.000000,4.000000,4.000000,4.000000,4.000000,4.000000,4.000000,4.000000,4.000000,4.000000,4.000000,4.000000,4.000000,100.000000,,,,,,,,,,,,,,,,
1644854346.228507,127.000000,0.000000,4236.538574,4220.000000,4206.538574,4212.436035,4267.692383,4234.487305,4225.000000,4225.384766,4233.461426,4245.384766,4134.102539,4197.436035,4128.846191,3751.666748,0.000000,4.000000,86.000000,,,,0.000000,4.000000,4.000000,4.000000,4.000000,4.000000,4.000000,4.000000,4.000000,4.000000,4.000000,4.000000,4.000000,4.000000,4.000000,100.000000,,,,,,,,,,,,,,,,
1644854346.232447,128.000000,0.000000,4234.615234,4219.871582,4204.615234,4201.025879,4275.000000,4233.461426,4223.974121,4225.256348,4232.436035,4245.000000,4136.153809,4198.974121,4131.025879,3751.153809,3552.000000,4.000000,86.000000,,,,0.000000,4.000000,4.000000,4.000000,4.000000,4.000000,4.000000,4.000000,4.000000,4.000000,4.000000,4.000000,4.000000,4.000000,4.000000,100.000000,,,,,,,,,,,,,,,,
1644854346.236388,129.000000,0.000000,4212.820313,4212.051270,4199.743652,4191.666504,4271.282227,4229.358887,4218.205078,4220.000000,4225.897461,4236.410156,4131.922852,4198.461426,4119.743652,3741.410156,3339.000000,4.000000,86.000000,,,,0.000000,4.000000,4.000000,4.000000,4.000000,4.000000,4.000000,4.000000,4.000000,4.000000,4.000000,4.000000,4.000000,4.000000,4.000000,100.000000,,,,,,,,,,,,,,,,
1644854346.240328,130.000000,0.000000,4183.974121,4201.794922,4196.410156,4192.820313,4259.871582,4224.487305,4213.077148,4213.461426,4218.077148,4224.102539,4126.410156,4196.922852,4103.205078,3729.487061,3583.000000,4.000000,86.000000,,,,0.000000,4.000000,4.000000,4.000000,4.000000,4.000000,4.000000,4.000000,4.000000,4.000000,4.000000,4.000000,4.000000,4.000000,4.000000,100.000000,,,,,,,,,,,,,,,,
1644854346.244268,131.000000,0.000000,4166.538574,4195.897461,4198.333496,4204.743652,4248.717773,4222.436035,4212.563965,4210.897461,4214.487305,4215.256348,4123.461426,4197.051270,4091.923096,3723.076904,3452.000000,4.000000,86.000000,,,,0.000000,4.000000,4.000000,4.000000,4.000000,4.000000,4.000000,4.000000,4.000000,4.000000,4.000000,4.000000,4.000000,4.000000,4.000000,100.000000,,,,,,,,,,,,,,,,
1644854346.248208,132.000000,0.000000,4171.153809,4197.307617,4204.615234,4221.025879,4245.000000,4224.615234,4216.538574,4214.871582,4217.820313,4215.769043,4123.717773,4200.256348,4092.435791,3725.256348,3704.000000,4.000000,86.000000,,,,0.000000,4.000000,4.000000,4.000000,4.000000,4.000000,4.000000,4.000000,4.000000,4.000000,4.000000,4.000000,4.000000,4.000000,4.000000,100.000000,,,,,,,,,,,,,,,,
1644854346.252148,133.000000,0.000000,4192.820313,4203.589844,4211.153809,4233.461426,4249.615234,4229.102539,4221.153809,4222.692383,4225.769043,4225.769043,4125.512695,4205.641113,4103.077148,3734.487061,3387.000000,4.000000,86.000000,,,,0.000000,4.000000,4.000000,4.000000,4.000000,4.000000,4.000000,4.000000,4.000000,4.000000,4.000000,4.000000,4.000000,4.000000,4.000000,100.000000,,,,,,,,,,,,,,,,
1644854346.256088,134.000000,0.000000,4215.897461,4209.358887,4214.615234,4236.410156,4256.538574,4232.563965,4223.717773,4229.358887,4232.948730,4239.615234,4127.179688,4210.512695,4115.512695,3747.051270,2762.000000,4.000000,86.000000,,,,0.000000,4.000000,4.000000,4.000000,4.000000,4.000000,4.000000,4.000000,4.000000,4.000000,4.000000,4.000000,4.000000,4.000000,4.000000,100.000000,,,,,,,,,,,,,,,,
1644854346.259928,135.000000,0.000000,4226.153809,4210.897461,4214.230957,4229.230957,4257.948730,4232.948730,4224.230957,4231.153809,4234.743652,4249.230957,4128.717773,4212.820313,4120.897461,3758.846191,3076.000000,4.000000,86.000000,,,,0.000000,4.000000,4.000000,4.000000,4.000000,4.000000,4.000000,4.000000,4.000000,4.000000,4.000000,4.000000,4.000000,4.000000,4.000000,100.000000,,,,,,,,,,,,,,,,
1644854346.263868,136.000000,0.000000,4221.538574,4209.102539,4211.794922,4216.538574,4251.794922,4231.153809,4224.230957,4228.333496,4231.538574,4251.025879,4131.538574,4212.436035,4117.307617,3767.051270,3455.000000,4.000000,86.000000,,,,0.000000,4.000000,4.000000,4.000000,4.000000,4.000000,4.000000,4.000000,4.000000,4.000000,4.000000,4.000000,4.000000,4.000000,4.000000,100.000000,,,,,,,,,,,,,,,,
1644854346.267808,137.000000,0.000000,4211.282227,4208.461426,4209.871582,4205.641113,4244.230957,4229.615234,4224.230957,4224.487305,4227.820313,4246.538574,4137.051270,4211.538574,4111.025879,3770.128174,3554.000000,4.000000,86.000000,,,,0.000000,4.000000,4.000000,4.000000,4.000000,4.000000,4.000000,4.000000,4.000000,4.000000,4.000000,4.000000,4.000000,4.000000,4.000000,100.000000,,,,,,,,,,,,,,,,
1644854346.271749,138.000000,0.000000,4207.563965,4212.051270,4210.512695,4202.563965,4243.974121,4230.641113,4223.974121,4223.205078,4227.820313,4240.384766,4144.871582,4212.436035,4109.487305,3769.871826,3566.000000,4.000000,86.000000,,,,0.000000,4.000000,4.000000,4.000000,4.000000,4.000000,4.000000,4.000000,4.000000,4.000000,4.000000,4.000000,4.000000,4.000000,4.000000,100.000000,,,,,,,,,,,,,,,,
1644854346.275689,139.000000,0.000000,4215.128418,4219.230957,4213.974121,4208.461426,4253.461426,4233.846191,4223.974121,4226.153809,4232.051270,4236.922852,4152.307617,4215.128418,4115.641113,3770.128174,2463.000000,4.000000,86.000000,,,,0.000000,4.000000,4.000000,4.000000,4.000000,4.000000,4.000000,4.000000,4.000000,4.000000,4.000000,4.000000,4.000000,4.000000,4.000000,100.000000,,,,,,,,,,,,,,,,
1644854346.279629,140.000000,0.000000,4229.102539,4226.538574,4218.333496,4218.461426,4267.179688,4236.794922,4225.000000,4231.538574,4237.692383,4238.077148,4157.436035,4217.563965,4126.282227,3775.000000,3369.000000,4.000000,86.000000,,,,0.000000,4.000000,4.000000,4.000000,4.000000,4.000000,4.000000,4.000000,4.000000,4.000000,4.000000,4.000000,4.000000,4.000000,4.000000,100.000000,,,,,,,,,,,,,,,,
1644854346.283569,141.000000,0.000000,4239.230957,4230.897461,4221.025879,4224.743652,4275.897461,4237.051270,4226.794922,4236.153809,4241.410156,4243.974121,4160.384766,4217.820313,4135.641113,3783.589844,3515.000000,4.000000,86.000000,,,,0.000000,4.000000,4.000000,4.000000,4.000000,4.000000,4.000000,4.000000,4.000000,4.000000,4.000000,4.000000,4.000000,4.000000,4.000000,100.000000,,,,,,,,,,,,,,,,
1644854346.287509,142.000000,0.000000,4238.974121,4230.897461,4220.128418,4222.948730,4273.205078,4233.846191,4227.179688,4237.179688,4241.538574,4251.410156,4162.307617,4215.000000,4139.230957,3790.256348,3566.000000,4.000000,86.000000,,,,0.000000,4.000000,4.000000,4.000000,4.000000,4.000000,4.000000,4.000000,4.000000,4.000000,4.000000,4.000000,4.000000,4.000000,4.000000,100.000000,,,,,,,,,,,,,,,,
1644854346.291449,143.000000,0.000000,4229.743652,4227.436035,4216.922852,4216.282227,4259.743652,4228.974121,4224.871582,4233.846191,4238.205078,4255.512695,4162.948730,4211.282227,4135.256348,3788.718018,2463.000000,4.000000,86.000000,,,,0.000000,4.000000,4.000000,4.000000,4.000000,4.000000,4.000000,4.000000,4.000000,4.000000,4.000000,4.000000,4.000000,4.000000,4.000000,100.000000,,,,,,,,,,,,,,,,
1644854346.295389,144.000000,0.000000,4220.128418,4221.410156,4214.230957,4212.820313,4243.205078,4225.000000,4221.410156,4228.717773,4233.461426,4253.846191,4159.487305,4209.743652,4126.538574,3778.589844,3369.000000,4.000000,86.000000,,,,0.000000,4.000000,4.000000,4.000000,4.000000,4.000000,4.000000,4.000000,4.000000,4.000000,4.000000,4.000000,4.000000,4.000000,4.000000,100.000000,1.000000,16.666666,3.000000,3.000000,4.000000,1.000000,1.000000,4.000000,4.000000,4.000000,4.000000,4.000000,1.000000,4.000000,1.000000,0.000000
1644854346.299329,145.000000,0.000000,4217.692383,4214.615234,4214.358887,4218.846191,4234.487305,4223.461426,4220.769043,4225.512695,4229.615234,4248.717773,4150.512695,4211.666504,4118.077148,3766.923096,3515.000000,4.000000,86.000000,,,,0.000000,4.000000,4.000000,4.000000,4.000000,4.000000,4.000000,4.000000,4.000000,4.000000,4.000000,4.000000,4.000000,4.000000,4.000000,100.000000,,,,,,,,,,,,,,,,
1644854346.303269,146.000000,0.000000,4224.230957,4209.615234,4216.538574,4232.692383,4240.897461,4225.000000,4223.846191,4226.282227,4228.846191,4245.641113,4139.615234,4215.384766,4115.256348,3762.564209,3566.000000,4.000000,86.000000,,,,0.000000,4.000000,4.000000,4.000000,4.000000,4.000000,4.000000,4.000000,4.000000,4.000000,4.000000,4.000000,4.000000,4.000000,4.000000,100.000000,,,,,,,,,,,,,,,,
1644854346.307210,147.000000,0.000000,4234.487305,4208.846191,4218.717773,4245.000000,4259.487305,4228.461426,4227.820313,4229.615234,4231.410156,4247.948730,4133.589844,4217.692383,4118.846191,3768.974365,2463.000000,4.000000,86.000000,,,,0.000000,4.000000,4.000000,4.000000,4.000000,4.000000,4.000000,4.000000,4.000000,4.000000,4.000000,4.000000,4.000000,4.000000,4.000000,100.000000,,,,,,,,,,,,,,,,
1644854346.311150,148.000000,0.000000,4240.641113,4212.179688,4218.717773,4246.410156,4277.692383,4231.922852,4228.717773,4231.666504,4235.128418,4252.692383,4135.897461,4216.666504,4125.641113,3781.794922,3369.000000,4.000000,86.000000,,,,0.000000,4.000000,4.000000,4.000000,4.000000,4.000000,4.000000,4.000000,4.000000,4.000000,4.000000,4.000000,4.000000,4.000000,4.000000,100.000000,,,,,,,,,,,,,,,,
1644854346.315090,149.000000,0.000000,4237.820313,4216.794922,4216.794922,4235.128418,4282.051270,4233.974121,4226.410156,4230.256348,4236.538574,4253.461426,4144.102539,4213.461426,4129.743652,3792.948730,3515.000000,4.000000,86.000000,,,,0.000000,4.000000,4.000000,4.000000,4.000000,4.000000,4.000000,4.000000,4.000000,4.000000,4.000000,4.000000,4.000000,4.000000,4.000000,100.000000,,,,,,,,,,,,,,,,
1644854346.319030,150.000000,0.000000,4226.538574,4218.461426,4215.000000,4218.846191,4269.230957,4234.615234,4224.102539,4226.666504,4234.487305,4246.794922,4152.820313,4210.128418,4127.692383,3796.923096,3566.000000,4.000000,86.000000,,,,0.000000,4.000000,4.000000,4.000000,4.000000,4.000000,4.000000,4.000000,4.000000,4.000000,4.000000,4.000000,4.000000,4.000000,4.000000,100.000000,,,,,,,,,,,,,,,,
1644854346.322970,151.000000,0.000000,4212.948730,4215.384766,4214.615234,4207.948730,4249.230957,4234.487305,4224.358887,4224.358887,4230.641113,4236.025879,4158.333496,4208.077148,4120.769043,3793.974365,2463.000000,4.000000,86.000000,,,,0.000000,4.000000,4.000000,4.000000,4.000000,4.000000,4.000000,4.000000,4.000000,4.000000,4.000000,4.000000,4.000000,4.000000,4.000000,100.000000,,,,,,,,,,,,,,,,
1644854346.326910,152.000000,0.000000,4204.230957,4209.487305,4215.769043,4207.820313,4237.948730,4234.230957,4226.282227,4224.871582,4228.589844,4228.974121,4160.128418,4207.307617,4114.358887,3788.333252,3369.000000,4.000000,86.000000,,,,0.000000,4.000000,4.000000,4.000000,4.000000,4.000000,4.000000,4.000000,4.000000,4.000000,4.000000,4.000000,4.000000,4.000000,4.000000,100.000000,,,,,,,,,,,,,,,,
1644854346.330950,153.000000,0.000000,4203.974121,4204.102539,4217.179688,4215.384766,4244.487305,4234.102539,4226.794922,4227.436035,4230.128418,4230.641113,4159.615234,4207.051270,4113.846191,3785.897461,3515.000000,4.000000,86.000000,,,,0.000000,4.000000,4.000000,4.000000,4.000000,4.000000,4.000000,4.000000,4.000000,4.000000,4.000000,4.000000,4.000000,4.000000,4.000000,100.000000,,,,,,,,,,,,,,,,
1644854346.334890,154.000000,0.000000,4210.256348,4202.948730,4217.692383,4222.948730,4264.230957,4234.102539,4225.256348,4229.487305,4233.589844,4238.974121,4157.307617,4206.666504,4120.384766,3791.153809,3566.000000,4.000000,86.000000,,,,0.000000,4.000000,4.000000,4.000000,4.000000,4.000000,4.000000,4.000000,4.000000,4.000000,4.000000,4.000000,4.000000,4.000000,4.000000,100.000000,,,,,,,,,,,,,,,,
1644854346.338830,155.000000,0.000000,4217.563965,4206.794922,4217.307617,4224.871582,4281.538574,4233.717773,4223.461426,4228.846191,4235.000000,4247.179688,4153.717773,4205.384766,4129.743652,3804.230713,2463.000000,4.000000,86.000000,,,,0.000000,4.000000,4.000000,4.000000,4.000000,4.000000,4.000000,4.000000,4.000000,4.000000,4.000000,4.000000,4.000000,4.000000,4.000000,100.000000,,,,,,,,,,,,,,,,
1644854346.342770,156.000000,0.000000,4221.153809,4213.077148,4216.922852,4221.282227,4282.948730,4233.205078,4223.333496,4225.256348,4231.410156,4249.487305,4150.128418,4203.974121,4136.025879,3818.974365,3369.000000,4.000000,86.000000,,,,0.000000,4.000000,4.000000,4.000000,4.000000,4.000000,4.000000,4.000000,4.000000,4.000000,4.000000,4.000000,4.000000,4.000000,4.000000,100.000000,,,,,,,,,,,,,,,,
1644854346.346710,157.000000,0.000000,4219.487305,4217.820313,4217.051270,4216.538574,4267.051270,4232.436035,4223.974121,4220.256348,4224.230957,4245.384766,4148.717773,4203.846191,4136.410156,3826.153809,3515.000000,4.000000,86.000000,,,,0.000000,4.000000,4.000000,4.000000,4.000000,4.000000,4.000000,4.000000,4.000000,4.000000,4.000000,4.000000,4.000000,4.000000,4.000000,100.000000,,,,,,,,,,,,,,,,
